WE1	Volts(mV)	WE1	Volts(mV)	WE1	Volts(mV)	WE1	Volts(mV)	WE1	Volts(mV)
ACV - Primera 1hz.teq4_2col	ACV - Primera 1hz.teq4_2col	ACV - Primera 2hz.teq4_2col	ACV - Primera 2hz.teq4_2col	ACV - Primera 5hz.teq4_2col	ACV - Primera 5hz.teq4_2col	ACV - Primera 10hz - bis.teq4_2col	ACV - Primera 10hz - bis.teq4_2col	ACV - Primera 25hz.teq4_2col	ACV - Primera 25hz.teq4_2col
-599.8792	--	-599.7801	3.9E-4	-599.8408	0.00247	-599.6427	0.00408	-599.4631	0.0078
-599.3621	--	-599.51	4.41008	-599.4852	0.00204	-599.297	0.00312	-599.3799	0.006
-598.3599	--	-599.0325	5.56396	-598.9348	0.00124	-598.7749	0.00226	-599.1702	0.00378
-596.7841	-	-598.311	5.21495	-598.2047	2.07928	-597.9316	0.00148	-598.8241	0.00224
-594.7408	0.956653	-597.2794	4.68181	-597.1602	3.36373	-596.9136	5.2E-4	-598.3552	3.1E-4
-592.672	0.138934	-596.3146	0.193462	-596.2825	3.79044	-596.1329	4.9E-4	-597.8731	4.2E-4
-590.5953	0.169082	-595.1869	1.618846	-595.3767	4.06874	-595.0967	2.22707	-597.4141	3.8E-4
-588.6633	0.026335	-594.1642	1.190334	-594.3937	2.10924	-594.1586	2.57498	-597.0984	0.00107
-586.6506	0.013684	-593.2202	0.375097	-593.379	0.788547	-593.2113	2.30118	-596.7052	0.00134
-584.7758	0.17362	-592.153	0.538126	-592.3452	0.275417	-592.1744	1.86359	-596.1587	8.5E-4
-582.8269	0.36437	-591.2783	1.27522	-591.3149	0.111695	-591.2997	0.85681	-595.6621	6.1E-4
-580.812	0.311235	-590.2916	1.529721	-590.2467	0.350915	-590.3745	1.7154	-595.0416	1.6E-4
-578.8644	0.119712	-589.2091	1.364676	-589.2766	0.491802	-589.3356	1.95716	-594.5077	7E-5
-576.7986	0.091885	-588.2314	0.680882	-588.2232	0.540719	-588.2258	1.99322	-594.0983	5E-5
-574.7494	0.274161	-587.2054	0.236279	-587.2283	0.57863	-587.1301	1.92655	-593.6198	1.7E-4
-572.7695	0.449787	-586.1356	1.205851	-586.2162	0.649283	-586.0448	1.812091	-593.067	7E-4
-570.8298	0.386123	-585.251	1.923453	-585.2662	0.624265	-584.9987	1.680591	-592.5222	8.6E-4
-568.9542	0.178259	-584.3607	2.221678	-584.3171	0.642417	-584.0292	1.551171	-592.0031	5.3E-4
-566.902	0.152397	-583.4137	2.081543	-583.2668	0.664231	-583.0854	1.341665	-591.4836	3E-5
-564.9078	0.327117	-582.4878	1.406204	-582.2719	0.609216	-582.184	1.031671	-590.9817	1.86469
-562.7117	0.496001	-581.3396	0.546746	-581.2617	0.586622	-581.2753	0.677183	-590.5257	2.22051
-560.5818	0.439765	-580.277	0.410063	-580.2784	0.572233	-580.3365	0.335571	-590.0129	2.25584
-558.7399	0.231265	-579.2818	1.107824	-579.36	0.545948	-579.369	0.064096	-589.5417	2.16563
-556.7897	0.19919	-578.2383	1.373167	-578.3608	0.535516	-578.3206	0.101715	-589.1817	0.12068
-554.8547	0.376178	-577.327	1.184837	-577.2857	0.535852	-577.3135	0.313964	-588.6244	0.42376
-552.9124	0.532635	-576.3386	0.492382	-576.196	0.538689	-576.2637	0.569799	-588.1934	0.69658
-550.8925	0.459071	-575.3583	0.381263	-575.1885	0.500384	-575.1852	0.780131	-587.6021	0.843
-548.8423	0.282342	-574.4465	1.341886	-574.2715	0.514246	-574.2462	1.007051	-586.9228	0.90384
-546.9026	0.298638	-573.5131	2.063744	-573.2456	0.532006	-573.2833	1.191672	-586.4701	0.95756
-544.862	0.505196	-572.4531	2.345109	-572.3646	0.532536	-572.3346	1.326376	-585.9424	0.96146
-542.8788	0.659882	-571.3241	2.20658	-571.334	0.571598	-571.4503	1.414979	-585.5154	0.96783
-540.8176	0.575007	-570.3354	1.547144	-570.3081	0.58479	-570.3926	1.428497	-585.0677	0.97136
-538.7429	0.432349	-569.2197	0.693596	-569.332	0.583512	-569.4902	1.358488	-584.5674	0.97119
-536.72	0.499273	-568.2369	0.235416	-568.4166	0.610525	-568.4665	1.256139	-583.9856	0.96662
-534.6024	0.700273	-567.3375	0.982484	-567.4785	0.656545	-567.4683	1.180838	-583.448	0.94494
-532.6241	0.790373	-566.2773	1.293269	-566.5081	0.696504	-566.5038	1.096819	-582.9124	0.924365
-530.6819	0.658345	-565.3441	1.208609	-565.6489	0.732614	-565.2843	0.948432	-582.3983	0.88721
-528.7452	0.487836	-564.3412	0.615448	-564.4694	0.770524	-564.2808	0.747486	-581.9694	0.862688
-526.8419	0.562852	-563.4041	0.211199	-563.3781	0.800636	-563.1859	0.511542	-581.5048	0.851
-524.8649	0.733936	-562.3682	1.161887	-562.2794	0.813556	-562.0873	0.25282	-580.9998	0.832462
-522.8629	0.703831	-561.3707	1.97658	-561.1957	0.847514	-561.2165	0.0357	-580.485	0.849489
-520.7961	0.532274	-560.3817	2.364667	-560.2463	0.888347	-560.2143	0.399366	-580.002	0.85964
-518.7396	0.430485	-559.2121	2.342852	-559.2653	0.886845	-559.2455	0.788363	-579.537	0.891869
-516.7019	0.528418	-558.2809	1.787957	-558.311	0.895784	-558.2919	1.159083	-579.0408	0.916379
-514.6754	0.670965	-557.3514	0.948628	-557.3402	0.907107	-557.222	1.470918	-578.5963	0.912523
-512.7044	0.604686	-556.3578	7.28E-4	-556.3099	0.885225	-556.2195	1.703538	-578.1056	0.937342
-510.7159	0.473841	-555.4045	0.78698	-555.2764	0.887285	-555.1796	1.953013	-577.5172	0.945043
-508.6646	0.48299	-554.374	1.175142	-554.3109	0.920906	-554.2537	2.237143	-577.1163	0.94622
-506.8056	0.653158	-553.2539	1.124556	-553.3932	0.905011	-553.2928	2.497195	-576.5563	0.941843
-504.8065	0.776195	-552.2834	0.527152	-552.4961	0.87773	-552.2484	2.732608	-576.0074	0.951769
-502.8329	0.654125	-551.3473	0.327658	-551.5704	0.87201	-551.3367	2.925736	-575.5392	0.958988
-500.9097	0.476535	-550.4032	1.313094	-550.5468	0.851255	-550.3395	3.116142	-575.0261	0.979768
-498.7693	0.522347	-549.3779	2.130012	-549.3069	0.832385	-549.3419	3.256929	-574.5797	1.007082
-496.7904	0.734964	-548.3341	2.485811	-548.245	0.83874	-548.3787	3.327949	-574.1385	1.018433
-494.8864	0.822689	-547.1936	2.435321	-547.1708	0.836982	-547.3352	3.321933	-573.6495	0.980125
-492.9458	0.67899	-546.1663	1.835511	-546.198	0.785107	-546.3328	3.227801	-573.1264	0.960257
-490.9969	0.478229	-545.2506	0.978285	-545.4236	0.809068	-545.3761	3.15499	-572.6053	0.965488
-489.0041	0.520832	-544.335	0.038237	-544.4843	0.823264	-544.3448	3.098517	-572.0317	0.935845
-486.8594	0.706464	-543.4226	0.754316	-543.5745	0.821577	-543.3004	2.999725	-571.4434	0.961898
-484.8534	0.768912	-542.4221	1.112033	-542.5337	0.843446	-542.3316	2.837405	-570.9404	0.984246
-482.8794	0.638832	-541.3948	1.041015	-541.4232	0.852313	-541.2908	2.628144	-570.4052	0.994262
-480.8407	0.491982	-540.3381	0.427622	-540.3536	0.869969	-540.3011	2.391764	-569.8818	1.01092
-478.9622	0.571613	-539.3049	0.437333	-539.333	0.867737	-539.2653	2.163676	-569.5182	1.031096
-476.9551	0.696672	-538.2552	1.400733	-538.3757	0.933212	-538.1588	1.85214	-569.0503	1.037977
-474.897	0.633539	-537.224	2.167778	-537.3811	0.957497	-537.1038	1.491691	-568.556	1.031526
-472.9012	0.482654	-536.2327	2.491355	-536.3909	0.965017	-536.1415	1.13564	-568.0504	1.035238
-470.7671	0.444399	-535.3216	2.399257	-535.4138	1.031608	-535.2791	0.816232	-567.4369	1.031986
-468.8123	0.55101	-534.3347	1.768254	-534.3627	1.049512	-534.296	0.594676	-566.897	1.047062
-466.8	0.613898	-533.4672	0.909231	-533.3467	1.083351	-533.3595	0.388041	-566.3941	1.060704
-464.7722	0.556933	-532.3682	0.019099	-532.3385	1.136322	-532.3682	0.136898	-565.924	1.058468
-462.8553	0.454794	-531.3783	0.747166	-531.3212	1.167805	-531.3558	0.132707	-565.4124	1.06823
-460.7803	0.449341	-530.4616	1.047815	-530.3124	1.169761	-530.4187	0.356776	-564.9644	1.059437
-458.7729	0.525649	-529.366	0.936253	-529.3468	1.17732	-529.4244	0.549288	-564.4796	1.070467
-456.8713	0.456953	-528.5669	0.337908	-528.3724	1.184332	-528.4464	0.718096	-564.0467	1.106541
-454.8419	0.379026	-527.5542	0.462218	-527.2732	1.153839	-527.4423	0.843151	-563.6303	1.091627
-452.8223	0.429491	-526.447	1.375747	-526.3047	1.15889	-526.4261	0.929086	-563.02	1.100015
-450.9193	0.509931	-525.4385	2.195175	-525.3348	1.155662	-525.3864	0.940345	-562.5535	1.100786
-448.8218	0.506675	-524.2604	2.618425	-524.4152	1.125828	-524.3614	0.874181	-561.939	1.085802
-446.7986	0.356334	-523.2436	2.706277	-523.4893	1.115206	-523.4203	0.789773	-561.4985	1.116654
-444.7533	0.268472	-522.2867	2.370475	-522.3887	1.094452	-522.3464	0.731291	-561.0663	1.122183
-442.8358	0.382056	-521.3892	1.634797	-521.4133	1.04285	-521.4216	0.644166	-560.5716	1.133539
-440.8034	0.502025	-520.5732	0.759181	-520.348	1.011213	-520.4339	0.497735	-560.1414	1.140518
-438.8611	0.470993	-519.5958	0.128486	-519.327	1.003097	-519.3426	0.311424	-559.7054	1.138316
-436.4869	0.285037	-518.5336	0.786441	-518.3744	0.942698	-518.3519	0.070835	-559.1848	1.14144
-433.8793	0.291975	-517.4049	1.080428	-517.3022	0.94654	-517.3296	0.152472	-558.6934	1.13657
-431.4995	0.380402	-516.3542	0.97221	-516.2676	0.960903	-516.2812	0.392386	-558.204	1.141135
-428.9929	0.286449	-515.3444	0.397439	-515.284	0.95184	-515.2748	0.713437	-557.5898	1.157472
-426.9113	0.202461	-514.3621	0.394957	-514.4023	0.988747	-514.333	1.085586	-557.1546	1.156178
-424.9029	0.159969	-513.3414	1.317599	-513.3922	1.01818	-513.3044	1.422847	-556.6174	1.16814
-422.8216	0.288077	-512.3422	2.15232	-512.3524	1.003612	-512.3389	1.749472	-556.1603	1.16112
-420.806	0.430445	-511.2944	2.590633	-511.295	1.031814	-511.3677	1.968525	-555.7202	1.160244
-418.7904	0.39623	-510.2292	2.638446	-510.2153	1.078472	-510.3986	2.173174	-555.139	1.174861
-416.87	0.294806	-509.3647	2.1928	-509.1824	1.077209	-509.3888	2.444651	-554.6423	1.195517
-414.9541	0.374859	-508.2833	1.404707	-508.1882	1.141527	-508.3549	2.70045	-554.0793	1.201384
-412.9685	0.521457	-507.253	0.46249	-507.3015	1.181166	-507.3088	2.939532	-553.4791	1.182259
-410.9962	0.500996	-506.4619	0.402226	-506.308	1.190614	-506.308	3.133792	-552.9801	1.179742
-408.8476	0.340091	-505.358	0.918176	-505.2985	1.217287	-505.2408	3.309511	-552.5126	1.165537
-406.8019	0.252807	-504.3769	1.011329	-504.3436	1.239115	-504.405	3.44454	-551.9998	1.18829
-404.7134	0.402486	-503.4702	0.593705	-503.2618	1.213578	-503.5959	3.556057	-551.5675	1.217213
-402.7067	0.55575	-502.3507	0.174186	-502.2606	1.220128	-502.5396	3.595087	-551.1147	1.212044
-400.7641	0.524392	-501.3994	1.110458	-501.3875	1.245322	-501.5593	3.539746	-550.6205	1.219077
-398.7756	0.442515	-500.3764	1.9951	-500.4415	1.200343	-500.4015	3.455535	-550.1777	1.217881
-396.9479	0.510355	-499.3221	2.524977	-499.4545	1.215132	-499.2243	3.39771	-549.648	1.214546
-394.9026	0.695369	-498.2754	2.68091	-498.419	1.193351	-498.2549	3.355768	-549.1362	1.228145
-392.8844	0.755274	-497.2715	2.359416	-497.3098	1.138165	-497.2933	3.26969	-548.5382	1.228567
-390.911	0.615514	-496.3202	1.622534	-496.2624	1.125326	-496.3849	3.125765	-548.0343	1.211867
-388.7753	0.49169	-495.3599	0.73314	-495.2622	1.098278	-495.3734	2.912945	-547.5195	1.216693
-386.8448	0.552347	-494.4489	0.190078	-494.36	1.083981	-494.3072	2.677366	-546.9688	1.22387
-384.8593	0.724993	-493.4725	0.817178	-493.3773	1.062901	-493.2592	2.46123	-546.4691	1.23381
-382.7737	0.709924	-492.4944	1.06417	-492.3775	1.0479	-492.1929	2.169047	-545.9395	1.256992
-380.8674	0.574584	-491.4615	0.845268	-491.4202	0.986186	-491.2439	1.804385	-545.4019	1.268386
-378.9054	0.60903	-490.4263	0.14339	-490.3883	0.979296	-490.3659	1.455459	-545.139	1.297293
-376.9779	0.77836	-489.401	0.729217	-489.4281	0.975022	-489.4868	1.125769	-544.7966	1.300413
-375.0611	0.909125	-488.3919	1.689759	-488.3965	0.954733	-488.4539	0.858337	-544.3488	1.299662
-372.998	0.902717	-487.3808	2.385857	-487.3762	0.993114	-487.5122	0.654039	-543.95	1.285196
-371.1201	0.854513	-486.3856	2.660835	-486.3737	0.983125	-486.5101	0.386445	-543.3034	1.26017
-369.1405	1.004902	-485.3801	2.472296	-485.3804	1.006958	-485.3405	0.089016	-542.6496	1.260058
-367.2084	1.200837	-484.3785	1.765342	-484.3861	1.056099	-484.4063	0.163042	-542.0803	1.283505
-365.2153	1.206046	-483.3691	0.844527	-483.3665	1.083089	-483.2595	0.381214	-541.5724	1.290657
-363.0534	1.068275	-482.3454	0.136277	-482.2939	1.10496	-482.2342	0.554437	-541.0458	1.280324
-360.9308	1.010503	-481.3357	0.826918	-481.3099	1.158	-481.3195	0.719172	-540.6102	1.290713
-358.7644	1.149334	-480.3068	1.044279	-480.351	1.175196	-480.4164	0.862426	-540.1625	1.278885
-356.7597	1.299293	-479.2593	0.706317	-479.3221	1.205875	-479.4409	0.959399	-539.6388	1.297668
-354.7553	1.320442	-478.4091	0.078219	-478.4031	1.28715	-478.4692	0.982012	-539.2878	1.318828
-352.8457	1.263209	-477.4062	1.077594	-477.3864	1.247203	-477.5218	0.925023	-538.7528	1.289842
-350.9517	1.390054	-476.1957	1.921408	-476.3826	1.241926	-476.3928	0.838236	-538.2849	1.257882
-349.0444	1.617081	-475.0819	2.403261	-475.4029	1.243507	-475.4818	0.780237	-537.7734	1.257651
-347.108	1.678569	-473.8119	2.333021	-474.3511	1.163882	-474.4261	0.743043	-537.2173	1.264662
-345.1483	1.598952	-472.5419	1.631909	-473.4352	1.183547	-473.3724	0.646998	-536.7323	1.316845
-342.99	1.524485	-471.6177	0.725211	-472.432	1.13507	-472.363	0.502148	-536.1597	1.337997
-340.9658	1.651793	-470.7027	0.297895	-471.405	1.07278	-471.2967	0.288709	-535.5756	1.334854
-338.8802	1.874923	-469.5621	0.977573	-470.4445	1.058971	-470.3163	0.047901	-535.068	1.333476
-336.8162	1.904783	-468.6498	1.071958	-469.3419	1.017642	-469.2934	0.174304	-534.5849	1.309115
-334.9666	1.795286	-467.5258	0.59174	-468.3605	0.995551	-468.3252	0.458323	-534.0662	1.32503
-332.9455	1.810814	-466.4186	0.313702	-467.4128	0.987749	-467.3914	0.814769	-533.6587	1.326647
-331.0428	2.024061	-465.4956	1.335678	-466.4407	0.929901	-466.408	1.186459	-533.0973	1.328293
-329.0592	2.291231	-464.4466	2.12394	-465.492	0.913964	-465.4494	1.523997	-532.6047	1.353855
-326.9733	2.321848	-463.3678	2.454769	-464.5107	0.937985	-464.4572	1.79462	-532.2332	1.359088
-324.8986	2.201762	-462.3398	2.237542	-463.4728	0.946399	-463.4454	1.987658	-531.7283	1.364177
-322.8768	2.184392	-461.2806	1.502263	-462.5046	0.990441	-462.4247	2.211313	-531.1531	1.384599
-320.8321	2.43645	-460.281	0.541922	-461.4172	1.009438	-461.3535	2.48615	-530.5838	1.374154
-318.9041	2.729667	-459.4016	0.421675	-460.4019	1.010175	-460.2965	2.734499	-529.9855	1.379309
-316.9641	2.799612	-458.3978	1.031758	-459.4129	1.043493	-459.2722	2.987599	-529.4552	1.399961
-314.8527	2.734172	-457.3494	1.108105	-458.3182	1.076053	-458.2859	3.166455	-528.9797	1.385128
-312.8916	2.610646	-456.3951	0.596368	-457.3451	1.091518	-457.4752	3.360412	-528.3771	1.391956
-310.8701	2.735596	-455.419	0.269753	-456.3941	1.154248	-456.4255	3.54328	-527.8292	1.38808
-308.9252	3.049447	-454.469	1.287255	-455.3144	1.146626	-455.5062	3.643983	-527.3075	1.376664
-307.0423	3.181571	-453.5705	2.089627	-454.3088	1.170107	-454.504	3.694026	-526.8561	1.389931
-305.0036	3.047854	-452.4957	2.446966	-453.2809	1.223865	-453.4503	3.651415	-526.4559	1.387646
-303.0366	2.882226	-451.5078	2.29757	-452.1384	1.204184	-452.5449	3.556431	-526.0362	1.398707
-300.9857	2.873735	-450.4266	1.602061	-451.2455	1.232706	-451.5117	3.503739	-525.5769	1.39211
-298.9374	3.079854	-449.4921	0.677425	-450.2123	1.250993	-450.4422	3.466965	-525.0502	1.382217
-296.9442	3.270094	-448.4705	0.304943	-449.3122	1.213195	-449.3174	3.38908	-524.6913	1.374373
-294.9363	3.216328	-447.3937	0.953428	-448.4523	1.261894	-448.304	3.251851	-524.1335	1.371355
-292.9514	3.063378	-446.3743	1.099872	-447.4885	1.210702	-447.2794	3.060452	-523.6253	1.383336
-290.9355	3.06508	-445.2414	0.703275	-446.5371	1.165785	-446.2449	2.837112	-523.0752	1.387782
-288.9377	3.236707	-444.2267	0.103846	-445.4917	1.162453	-445.3272	2.622989	-522.5093	1.400154
-286.9558	3.40954	-443.2344	1.101065	-444.397	1.065599	-444.2967	2.409763	-522.0172	1.41032
-284.9438	3.345185	-442.3151	2.00201	-443.3308	1.071603	-443.2519	2.102808	-521.4532	1.413958
-283.03	3.167765	-441.3449	2.504044	-442.3382	1.052039	-442.3726	1.75457	-520.9404	1.436
-281.0854	3.200215	-440.354	2.533306	-441.3905	0.989335	-441.4288	1.4229	-520.4966	1.443154
-279.0457	3.374385	-439.33	1.933191	-440.4527	1.010548	-440.4408	1.125249	-520.0875	1.458505
-276.9994	3.502338	-438.309	1.010993	-439.537	1.030711	-439.468	0.922604	-519.5839	1.460395
-275.0033	3.406267	-437.3121	0.004175	-438.4767	1.045986	-438.4375	0.731744	-519.1715	1.450089
-273.0079	3.225659	-436.3228	0.763282	-437.4181	1.137973	-437.3748	0.496762	-518.6537	1.456478
-271.1455	3.264473	-435.2665	1.001907	-436.3139	1.15991	-436.3571	0.237084	-518.1591	1.445939
-269.0982	3.432869	-434.2534	0.669131	-435.2315	1.205764	-435.2959	0.020147	-517.8041	1.451916
-267.0869	3.512599	-433.3044	0.142136	-434.3499	1.254905	-434.2758	0.145026	-517.3425	1.470986
-265.0769	3.412599	-432.3303	1.169322	-433.3331	1.25135	-433.2559	0.307533	-516.8072	1.459369
-262.884	3.150398	-431.5338	2.076443	-432.4141	1.3126	-432.2887	0.435532	-516.2244	1.473454
-260.913	3.113261	-430.5066	2.529385	-431.4163	1.342257	-431.3301	0.545895	-515.6462	1.468812
-258.8991	3.311662	-429.4987	2.354286	-430.463	1.365144	-430.2437	0.609802	-515.11	1.449718
-256.9086	3.339066	-428.6287	1.612648	-429.4977	1.468535	-429.334	0.569063	-514.646	1.460071
-254.9508	3.140343	-427.5274	0.579624	-428.4804	1.475091	-428.3575	0.490449	-514.2015	1.444598
-252.9867	2.817621	-426.5219	0.36132	-427.4818	1.486329	-427.3345	0.410596	-513.7254	1.457128
-250.9421	2.647666	-425.4633	0.855321	-426.3416	1.53447	-426.4117	0.343179	-513.235	1.474299
-248.9258	2.785321	-424.2891	0.693019	-425.3398	1.474957	-425.2926	0.237363	-512.718	1.476564
-247.0625	2.938614	-423.2991	0.068094	-424.3069	1.507559	-424.2848	0.064161	-512.1619	1.487535
-245.0449	2.884816	-422.3243	1.129215	-423.4471	1.500263	-423.3292	0.150996	-511.5936	1.49002
-243.0567	2.622431	-421.2221	2.106072	-422.4633	1.466728	-422.4557	0.422583	-511.059	1.491282
-241.0028	2.437323	-420.2351	2.629222	-421.4869	1.485858	-421.4295	0.670804	-510.5713	1.48153
-238.9001	2.572069	-419.3293	2.535014	-420.4716	1.458514	-420.4101	0.924496	-510.0971	1.469302
-236.9532	2.783778	-418.3249	1.828903	-419.3165	1.449221	-419.3805	1.288417	-509.7124	1.459116
-234.9676	2.808219	-417.4657	0.869434	-418.3106	1.454664	-418.2555	1.688531	-509.2765	1.449924
-233.0045	2.59132	-416.5797	0.088784	-417.2949	1.390689	-417.3286	2.081504	-508.7109	1.467261
-231.0745	2.306821	-415.4623	0.675379	-416.3469	1.399779	-416.3704	2.451835	-508.1277	1.483896
-229.0447	2.252396	-414.4661	0.709321	-415.3467	1.422584	-415.389	2.701541	-507.5892	1.511526
-227.0509	2.348259	-413.4074	0.160932	-414.3904	1.413905	-414.4572	2.932001	-506.9687	1.520146
-225.1651	2.403291	-412.3686	0.745703	-413.3434	1.483934	-413.4404	3.206649	-506.5295	1.528037
-223.0313	2.147023	-411.338	1.755125	-412.4135	1.507063	-412.4389	3.513506	-506.1029	1.542321
-221.0705	1.825723	-410.3041	2.550828	-411.4539	1.540423	-411.3938	3.798219	-505.5557	1.525929
-219.0602	1.766755	-409.3029	2.880532	-410.4511	1.623676	-410.3962	4.050874	-505.1371	1.529728
-216.9888	1.851937	-408.1978	2.727059	-409.4644	1.689951	-409.4205	4.279948	-504.5962	1.540737
-214.9742	1.915857	-407.2378	2.076262	-408.3952	1.739406	-408.314	4.492505	-504.0213	1.523957
-213.0541	1.753469	-406.2845	1.204991	-407.4237	1.826348	-407.3672	4.670039	-503.5735	1.542466
-211.0504	1.449778	-405.3546	0.296909	-406.375	1.880178	-406.3495	4.799538	-503.0732	1.54562
-208.9945	1.312524	-404.4436	0.32552	-405.3692	1.942414	-405.3698	4.840286	-502.5726	1.53341
-207.0443	1.443666	-403.3724	0.534861	-404.3419	2.048908	-404.3851	4.821994	-502.1417	1.546424
-205.0248	1.518825	-402.3286	0.298188	-403.3348	2.06718	-403.3906	4.800874	-501.6979	1.520859
-203.0485	1.3704	-401.232	0.394968	-402.398	2.132952	-402.3583	4.805745	-501.229	1.525367
-201.0557	1.139876	-400.2552	1.216911	-401.4813	2.171102	-401.3499	4.781479	-500.7344	1.54637
-199.1566	1.070109	-399.3145	2.123678	-400.4738	2.156514	-400.3583	4.699709	-500.2401	1.535039
-197.0922	1.203401	-398.4599	2.870827	-399.4509	2.211838	-399.2953	4.575064	-499.6893	1.527848
-195.1176	1.317	-397.5356	3.255437	-398.418	2.203887	-398.2697	4.367628	-499.227	1.507261
-193.1076	1.164995	-396.5804	3.337121	-397.3286	2.204234	-397.1979	4.203328	-498.7445	1.523015
-191.0702	0.891979	-395.5518	3.07518	-396.4258	2.240163	-396.2201	4.040606	-498.2053	1.551769
-189.1603	0.816564	-394.4931	2.459832	-395.4177	2.24264	-395.213	3.746216	-497.6641	1.588954
-187.2025	0.937796	-393.4695	1.760999	-394.4205	2.255211	-394.3168	3.472438	-497.1645	1.603593
-185.2909	1.095343	-392.4468	1.007233	-393.4057	2.303203	-393.3622	3.173158	-496.586	1.588394
-183.2525	1.030197	-391.5355	0.309429	-392.3042	2.31632	-392.4838	2.909163	-496.0765	1.578787
-181.2102	0.775257	-390.5888	0.029231	-391.3492	2.359908	-391.5675	2.792383	-495.5505	1.573813
-179.2432	0.668236	-389.5694	0.157701	-390.3692	2.433026	-390.461	2.657483	-494.9036	1.598744
-177.2032	0.825605	-388.5372	0.099668	-389.338	2.471763	-389.4271	2.471154	-494.436	1.581111
-175.3097	1.047247	-387.4557	0.742623	-388.4682	2.53278	-388.4256	2.269284	-493.8994	1.585144
-173.2397	1.067869	-386.3466	1.490742	-387.4135	2.60092	-387.4475	2.09829	-493.4226	1.598181
-171.1653	0.862542	-385.4692	2.377292	-386.4249	2.666005	-386.5117	1.971098	-492.9705	1.5848
-169.1401	0.583749	-384.4565	3.192264	-385.4772	2.760978	-385.5253	1.847888	-492.536	1.60081
-167.0734	0.557883	-383.4907	3.690809	-384.4509	2.87413	-384.5308	1.762678	-492.1146	1.620611
-165.1341	0.753267	-382.4564	3.95173	-383.4913	2.968138	-383.419	1.701805	-491.588	1.610222
-163.137	0.823772	-381.3406	3.842112	-382.5119	3.071255	-382.4118	1.706	-491.1204	1.633401
-161.1577	0.667966	-380.3292	3.297261	-381.5114	3.177996	-381.4476	1.813588	-490.5977	1.63603
-159.153	0.403824	-379.328	2.620948	-380.4636	3.258307	-380.4824	1.971362	-490.1754	1.618898
-157.152	0.308243	-378.4371	1.828257	-379.5568	3.399113	-379.5896	2.11526	-489.7368	1.629687
-155.1304	0.445438	-377.4379	1.089683	-378.5441	3.488458	-378.5953	2.263775	-489.2141	1.616899
-153.0937	0.634255	-376.4896	0.719835	-377.641	3.561438	-377.6209	2.460931	-488.6356	1.616314
-151.0791	0.588321	-375.4781	0.687543	-376.6583	3.658157	-376.4995	2.701753	-488.0336	1.614026
-149.0576	0.362833	-374.476	1.091211	-375.6568	3.703011	-375.4362	2.991558	-487.5291	1.605418
-147.0262	0.262464	-373.4398	1.868663	-374.7471	3.765213	-374.3891	3.318517	-487.041	1.604211
-145.041	0.421194	-372.3669	2.828877	-373.6276	3.859849	-373.345	3.628264	-486.6477	1.598094
-143.0736	0.624631	-371.3905	3.768455	-372.6591	3.893479	-372.3557	4.006756	-486.1382	1.603442
-140.9801	0.605402	-370.3256	4.395301	-371.5444	3.889445	-371.4384	4.455249	-485.6809	1.61999
-138.9988	0.403647	-369.3937	4.608308	-370.4359	3.961862	-370.4362	4.889444	-485.2199	1.618041
-137.0598	0.233404	-368.4243	4.26051	-369.5077	3.956332	-369.4578	5.319385	-484.6731	1.626206
-134.9901	0.333158	-367.4042	3.515033	-368.5042	4.003446	-368.4252	5.666099	-484.2389	1.630199
-133.132	0.545998	-366.476	2.643577	-367.4842	4.083482	-367.4478	5.957865	-483.6656	1.630142
-131.1257	0.567429	-365.6119	1.880475	-366.4513	4.112254	-366.4661	6.294848	-483.1772	1.64111
-129.1808	0.359122	-364.5166	1.570317	-365.3966	4.164401	-365.4725	6.65198	-482.7265	1.667632
-127.2226	0.217429	-363.632	1.7785	-364.3564	4.270062	-364.5239	7.015251	-482.2015	1.669761
-125.1909	0.332888	-362.5875	2.502097	-363.4239	4.353153	-363.4933	7.341774	-481.6956	1.666542
-123.3252	0.600374	-361.4902	3.492129	-362.501	4.450709	-362.465	7.607977	-481.1214	1.680558
-121.2525	0.67312	-360.5977	4.506746	-361.6058	4.584208	-361.5533	7.905433	-480.5594	1.654022
-119.2376	0.497876	-359.4727	5.179613	-360.634	4.654028	-360.5686	8.086891	-480.1242	1.651521
-117.2097	0.242575	-358.4368	5.346152	-359.5651	4.75528	-359.4571	8.255768	-479.6962	1.648113
-115.0419	0.213687	-357.4356	4.94488	-358.5884	4.866197	-358.413	8.330532	-479.2653	1.633155
-112.9953	0.44236	-356.3892	4.186876	-357.4396	4.971806	-357.3511	8.33521	-478.8248	1.653475
-111.0454	0.51793	-355.3196	3.290042	-356.3918	5.08474	-356.405	8.357418	-478.3136	1.661724
-109.0685	0.382091	-354.2831	2.570007	-355.3998	5.223673	-355.4676	8.398375	-477.8071	1.668049
-107.1209	0.12951	-353.1366	2.356391	-354.3716	5.348154	-354.6018	8.408248	-477.2355	1.672301
-105.138	0.001502	-352.1387	2.622609	-353.4493	5.46671	-353.5642	8.357025	-476.7104	1.659395
-103.1016	0.236301	-351.1828	3.419151	-352.47	5.620457	-352.4921	8.250472	-476.1719	1.672204
-101.0966	0.650823	-350.2417	4.439241	-351.5196	5.73565	-351.4965	8.101598	-475.6789	1.676897
-99.11537	0.765026	-349.3204	5.444787	-350.4712	5.816799	-350.4656	7.952868	-475.218	1.682523
-97.12885	0.664168	-348.3823	6.094957	-349.4637	5.916032	-349.4463	7.763193	-474.7342	1.695612
-95.10104	0.446381	-347.3441	6.245473	-348.3615	6.008134	-348.4715	7.503243	-474.1966	1.688288
-93.01645	0.352204	-346.3311	5.82166	-347.3917	6.087143	-347.5429	7.228025	-473.6422	1.693844
-90.97642	0.485759	-345.4048	5.04632	-346.3397	6.196735	-346.5074	6.988741	-473.2608	1.722304
-89.03316	0.620473	-344.4149	4.143195	-345.39	6.29708	-345.5251	6.819011	-472.6942	1.714452
-87.0202	0.508688	-343.5147	3.461109	-344.5281	6.350936	-344.4753	6.691268	-472.1909	1.713553
-85.0852	0.250052	-342.5119	3.28799	-343.4447	6.418375	-343.3245	6.551973	-471.7349	1.723316
-83.11848	0.129627	-341.4929	3.6346	-342.5347	6.506956	-342.3587	6.365274	-471.1276	1.701106
-80.99657	0.205341	-340.4923	4.467599	-341.4998	6.544595	-341.3743	6.1803	-470.6852	1.701798
-79.01862	0.466327	-339.4192	5.497713	-340.4379	6.644937	-340.4174	6.048775	-470.2219	1.726221
-77.06017	0.540272	-338.4639	6.478921	-339.4974	6.713089	-339.4703	5.944937	-469.644	1.709081
-75.04491	0.412112	-337.4409	7.073449	-338.5012	6.761457	-338.48	5.851675	-469.0794	1.713408
-73.16768	0.13714	-336.3925	7.180267	-337.5485	6.826316	-337.502	5.751599	-468.6052	1.746814
-71.22276	0.044813	-335.4805	6.719671	-336.5847	6.888398	-336.4635	5.779326	-468.0914	1.743626
-69.22269	0.242018	-334.4221	5.956458	-335.5511	6.991175	-335.5336	5.783507	-467.7757	1.77356
-67.2563	0.470754	-333.4876	5.049497	-334.6288	7.075885	-334.5272	5.897703	-467.3128	1.787288
-65.19317	0.550778	-332.4581	4.364049	-333.6514	7.200742	-333.4249	6.058011	-466.831	1.785156
-63.1974	0.304854	-331.3522	4.169076	-332.6879	7.295768	-332.4726	6.141942	-466.3793	1.794628
-61.16563	0.07742	-330.3913	4.477989	-331.6646	7.369488	-331.3393	6.369681	-465.6528	1.788882
-59.17283	0.097961	-329.2868	5.261528	-330.5039	7.493872	-330.3299	6.61852	-465.1608	1.785909
-57.12753	0.252538	-328.3688	6.277786	-329.4093	7.629198	-329.4908	6.942838	-464.5569	1.780829
-55.05943	0.355728	-327.4373	7.259323	-328.3057	7.7533	-328.451	7.284464	-464.0269	1.776329
-53.04055	0.24409	-326.5048	7.917194	-327.3943	7.891322	-327.5172	7.592973	-463.6943	1.783553
-50.96057	0.131689	-325.5148	8.093618	-326.4172	8.02666	-326.485	7.96103	-463.2033	1.793536
-49.0064	0.229643	-324.3967	7.750653	-325.3827	8.100237	-325.3788	8.373399	-462.6678	1.781367
-47.02583	0.362254	-323.4507	7.064883	-324.4307	8.17821	-324.4073	8.79878	-462.1421	1.799247
-45.03038	0.307923	-322.3507	6.198147	-323.4675	8.316737	-323.4586	9.213741	-461.5519	1.786373
-43.08084	0.13119	-321.3519	5.495163	-322.4851	8.377537	-322.4719	9.540129	-461.0332	1.766022
-41.05204	0.047975	-320.4973	5.117718	-321.5645	8.454993	-321.5038	9.818533	-460.6274	1.804827
-39.04801	0.156784	-319.4928	5.107762	-320.5452	8.555288	-320.5026	10.119329	-460.0931	1.821074
-37.08823	0.272862	-318.4976	5.668926	-319.4618	8.605503	-319.4538	10.45782	-459.5014	1.8144
-35.12251	0.250894	-317.567	6.443969	-318.4021	8.674174	-318.4404	10.75607	-458.938	1.847088
-33.1624	0.155582	-316.5391	7.438969	-317.3702	8.778524	-317.4307	11.041064	-458.3949	1.864871
-31.1412	0.216312	-315.524	8.349433	-316.3806	8.856772	-316.3469	11.316692	-457.9415	1.846162
-29.13519	0.359738	-314.5417	8.865947	-315.4025	8.903132	-315.3596	11.566975	-457.572	1.896577
-27.06314	0.3371	-313.517	9.052231	-314.4225	8.977221	-314.4489	11.801803	-457.146	1.909056
-25.09477	0.161081	-312.4538	8.665198	-313.3417	9.02903	-313.5458	11.95522	-456.7412	1.887241
-23.09107	0.031785	-311.4975	8.023125	-312.3963	9.055318	-312.6387	11.996586	-456.2551	1.900167
-21.06789	0.115913	-310.4719	7.15276	-311.3548	9.08195	-311.6943	11.997088	-455.7122	1.906778
-19.05231	0.250712	-309.4548	6.362296	-310.3758	9.049461	-310.6551	11.981339	-455.3233	1.922818
-17.02153	0.190748	-308.5065	5.9274	-309.4941	9.082369	-309.5529	11.976507	-454.8339	1.955775
-15.04656	0.030213	-307.3841	5.897564	-308.4365	9.072332	-308.4939	11.929214	-454.3393	1.986909
-12.98871	0.032777	-306.4479	6.35348	-307.4412	9.110436	-307.3957	11.832366	-453.799	2.003888
-11.05303	0.216322	-305.4425	7.16179	-306.4803	9.172737	-306.3086	11.705062	-453.2195	2.038648
-8.953573	0.33667	-304.3643	8.102026	-305.4672	9.169358	-305.3147	11.476901	-452.6469	2.048217
-7.00667	0.252372	-303.3929	8.942383	-304.4297	9.23785	-304.3099	11.30574	-452.1354	2.042517
-5.068683	0.127931	-302.3811	9.465873	-303.4048	9.309734	-303.2657	10.991228	-451.6755	2.052018
-3.068287	0.205068	-301.3829	9.551488	-302.4118	9.37949	-302.2527	10.691861	-451.1822	2.044285
-1.168934	0.400795	-300.4164	9.073581	-301.3608	9.485269	-301.2654	10.383992	-450.6277	2.034626
0.834764	0.419447	-299.4149	8.282897	-300.4725	9.583008	-300.3309	10.120461	-450.1357	2.051662
2.785629	0.241197	-298.4635	7.34596	-299.4654	9.64707	-299.3961	9.919148	-449.7279	2.080476
4.724937	0.04654	-297.4617	6.631494	-298.4084	9.727106	-298.5448	9.758554	-449.2428	2.089976
6.683727	0.140464	-296.4644	6.365547	-297.4006	9.81027	-297.5132	9.558531	-448.7521	2.111538
8.611809	0.326294	-295.5363	6.680896	-296.2686	9.875364	-296.519	9.326127	-448.2614	2.147254
10.64456	0.32111	-294.4935	7.43653	-295.2506	9.911893	-295.6835	9.126795	-447.7295	2.155268
12.62251	0.14846	-293.5659	8.415343	-294.2732	9.998118	-294.6632	8.94115	-447.188	2.168671
14.68069	0.016433	-292.6205	9.353686	-293.2899	10.037219	-293.7165	8.766343	-446.6742	2.192157
16.69793	0.098926	-291.547	9.829253	-292.3672	10.105549	-292.676	8.612937	-446.2198	2.186094
18.65804	0.229208	-290.5878	9.790311	-291.3912	10.202681	-291.5698	8.510784	-445.6951	2.191502
20.64556	0.171234	-289.5688	9.208538	-290.4557	10.287637	-290.6059	8.47785	-445.14	2.225769
22.51882	6.95E-4	-288.5161	8.259704	-289.5559	10.351338	-289.5014	8.545048	-444.7154	2.248628
24.59219	0.00846	-287.5518	7.368917	-288.5573	10.402017	-288.6273	8.658224	-444.1246	2.270594
26.51202	0.172394	-286.4744	6.853876	-287.5654	10.440885	-287.6664	8.727761	-443.5385	2.28998
28.54181	0.349716	-285.527	6.993377	-286.5645	10.42431	-286.5665	8.785026	-443.0851	2.297392
30.64655	0.245255	-284.582	7.75951	-285.4923	10.426133	-285.596	8.911992	-442.5155	2.306921
32.66444	0.070904	-283.5623	8.717659	-284.5519	10.444039	-284.4037	9.102209	-442.037	2.340134
34.76126	0.068758	-282.6473	9.677216	-283.5953	10.444804	-283.2602	9.342683	-441.5969	2.362724
36.68802	0.236154	-281.4929	9.983351	-282.5495	10.446434	-282.2315	9.603889	-441.0322	2.376133
38.67389	0.403822	-280.4943	9.673226	-281.5157	10.446236	-281.3813	9.840156	-440.5792	2.403243
40.58447	0.271287	-279.573	8.874409	-280.4085	10.422079	-280.4151	10.158851	-440.144	2.414082
42.52081	0.014307	-278.5355	7.853642	-279.4297	10.316306	-279.4416	10.522997	-439.612	2.441062
44.62455	0.071007	-277.5819	7.088756	-278.3684	10.280918	-278.4919	10.894873	-439.1418	2.461225
46.52589	0.151736	-276.5635	6.962441	-277.4448	10.288993	-277.4307	11.245948	-438.6834	2.493608
48.45694	0.418086	-275.4752	7.451318	-276.5272	10.274771	-276.5741	11.536315	-438.0538	2.509049
50.61319	0.494501	-274.4846	8.367376	-275.5045	10.368425	-275.6799	11.797173	-437.5905	2.520968
52.5459	0.271762	-273.5814	9.386797	-274.6236	10.419691	-274.7702	12.062343	-437.1342	2.560965
54.58163	0.011493	-272.5291	10.006149	-273.5937	10.413951	-273.7231	12.332212	-436.6015	2.569962
56.68273	0.053564	-271.616	10.022209	-272.4881	10.460163	-272.6324	12.511869	-436.1927	2.587759
58.50747	0.187086	-270.6462	9.437088	-271.5051	10.519431	-271.6104	12.760733	-435.6287	2.621353
60.46857	0.5017	-269.58	8.519479	-270.4593	10.550517	-270.5009	12.929527	-435.1311	2.612635
62.46863	0.580747	-268.5824	7.539063	-269.4439	10.60373	-269.4918	13.159274	-434.611	2.635681
64.39671	0.382027	-267.4204	6.981521	-268.5603	10.639706	-268.4325	13.301854	-434.0856	2.660631
66.48461	0.090696	-266.3971	7.004004	-267.468	10.620967	-267.4739	13.3695	-433.6561	2.669466
68.55865	0.003969	-265.4138	7.603283	-266.402	10.628993	-266.5794	13.362041	-433.0854	2.698242
70.5881	0.225149	-264.4806	8.601062	-265.4253	10.686218	-265.667	13.307885	-432.6301	2.74167
72.64595	0.520934	-263.5164	9.516065	-264.3402	10.672427	-264.7408	13.278302	-432.2005	2.783618
74.60606	0.612426	-262.4815	10.060821	-263.418	10.677078	-263.7264	13.249924	-431.7455	2.815388
76.57773	0.421899	-261.3674	9.897841	-262.4686	10.736722	-262.6463	13.135717	-431.335	2.850179
78.57185	0.125459	-260.3421	9.238792	-261.4701	10.720109	-261.5464	12.943375	-430.8437	2.859698
80.51645	0.056532	-259.4733	8.263416	-260.5455	10.742555	-260.5082	12.697758	-430.2549	2.869808
82.51618	0.268106	-258.5431	7.315715	-259.5156	10.8018	-259.4198	12.437205	-429.7738	2.899895
84.59979	0.56881	-257.6859	6.832327	-258.5666	10.759322	-258.2644	12.208907	-429.2365	2.92587
86.51763	0.657995	-256.7131	6.912129	-257.568	10.711549	-257.3527	11.906866	-428.7574	2.947255
88.50515	0.477521	-255.6443	7.517034	-256.584	10.69149	-256.3737	11.543282	-428.2235	2.976329
90.53362	0.188411	-254.541	8.456784	-255.671	10.617806	-255.4682	11.164513	-427.7034	2.996946
92.59873	0.113517	-253.5151	9.276528	-254.6817	10.547862	-254.6351	10.815486	-427.2391	3.033514
94.63083	0.348228	-252.4901	9.653683	-253.6607	10.508145	-253.5785	10.555525	-426.6771	3.061682
96.76166	0.614326	-251.5672	9.438042	-252.6714	10.447417	-252.5852	10.342187	-426.2198	3.085633
		-250.6307	8.670978	-251.5229	10.401718	-251.5295	10.092179	-425.6245	3.111591
		-249.651	7.675387	-250.4699	10.402461	-250.4289	9.822534	-425.1116	3.14645
		-248.6527	6.781413	-249.5067	10.33584	-249.4786	9.571552	-424.6662	3.185061
		-247.5799	6.38358	-248.4959	10.305994	-248.414	9.333533	-424.1243	3.247691
		-246.6236	6.598203	-247.5574	10.292818	-247.4237	9.106522	-423.6409	3.308392
		-245.5438	7.304827	-246.5787	10.257065	-246.5368	8.915319	-423.1224	3.354026
		-244.578	8.26374	-245.6878	10.299697	-245.523	8.776136	-422.5479	3.366928
		-243.657	9.036066	-244.7695	10.319153	-244.5938	8.716126	-422.079	3.361097
		-242.6189	9.301299	-243.7895	10.322118	-243.6557	8.712096	-421.6883	3.363603
		-241.6936	9.054415	-242.6889	10.307443	-242.7037	8.804519	-421.2237	3.351206
		-240.6611	8.195641	-241.5404	10.31009	-241.7712	8.779769	-420.7968	3.353813
		-239.5024	7.160549	-240.3385	10.276589	-240.7522	8.789449	-420.354	3.410949
		-238.5646	6.297471	-239.3211	10.25552	-239.6777	8.829707	-419.7745	3.446493
		-237.424	5.791256	-238.4196	10.29288	-238.6296	8.933457	-419.2422	3.492687
		-236.3872	5.980223	-237.4835	10.209818	-237.496	9.115374	-418.7145	3.562702
		-235.4171	6.625209	-236.586	10.167209	-236.4664	9.313024	-418.175	3.587214
		-234.3327	7.495965	-235.5683	10.109783	-235.4854	9.475318	-417.6681	3.628531
		-233.4345	8.316724	-234.644	9.995473	-234.4855	9.701665	-417.22	3.676972
		-232.5043	8.698581	-233.627	9.935256	-233.557	10.004251	-416.7062	3.712985
		-231.549	8.5059	-232.5842	9.828811	-232.5664	10.313425	-416.2353	3.739802
		-230.5191	7.792489	-231.6418	9.69633	-231.5312	10.593629	-415.7357	3.758198
		-229.4888	6.746575	-230.5693	9.583049	-230.6056	10.785768	-415.2358	3.777999
		-228.4348	5.73377	-229.4674	9.472692	-229.5503	10.921016	-414.7134	3.821295
		-227.4435	5.143351	-228.562	9.368275	-228.6214	11.095157	-414.1454	3.85238
		-226.4506	5.173998	-227.4498	9.292834	-227.7113	11.313157	-413.6174	3.882538
		-225.5439	6.047067	-226.3908	9.192946	-226.5612	11.517292	-413.0439	3.909518
		-224.5004	7.224761	-225.5766	9.126284	-225.594	11.686278	-412.5291	3.933286
		-223.5851	8.348725	-224.4842	9.077195	-224.5291	11.84818	-412.084	3.978283
		-222.5644	9.037375	-223.5837	9.007034	-223.4252	11.970885	-411.6329	4.017254
		-221.5434	8.866209	-222.6076	8.942534	-222.499	12.052996	-411.1511	4.058281
		-220.5762	8.126068	-221.4648	8.879743	-221.477	12.087	-410.7199	4.1168
		-219.5083	7.048833	-220.4375	8.808964	-220.4861	12.029925	-410.1859	4.135057
		-218.5266	5.982322	-219.3772	8.787117	-219.5258	11.920705	-409.7315	4.190476
		-217.4881	5.307675	-218.4249	8.745506	-218.5213	11.796516	-409.2075	4.223091
		-216.5668	5.222409	-217.4211	8.668202	-217.5191	11.677195	-408.6505	4.225946
		-215.49	5.749818	-216.4516	8.658796	-216.5315	11.507526	-408.1568	4.270807
		-214.6074	6.642486	-215.5273	8.613217	-215.4864	11.292834	-407.6258	4.300291
		-213.6712	7.524227	-214.4601	8.585398	-214.4172	10.973193	-407.1672	4.330423
		-212.6479	8.002945	-213.5068	8.623579	-213.3807	10.674919	-406.693	4.361479
		-211.6765	7.852363	-212.5558	8.527153	-212.3128	10.359767	-406.2039	4.379606
		-210.598	7.099704	-211.5513	8.446561	-211.3416	10.023816	-405.6538	4.39962
		-209.4928	5.992079	-210.5782	8.337542	-210.3606	9.656446	-405.1767	4.446004
		-208.5137	4.938786	-209.6064	8.169668	-209.4664	9.20664	-404.7662	4.508644
		-207.5016	4.271978	-208.6019	8.096424	-208.5088	8.801513	-404.3782	4.566412
		-206.516	4.23217	-207.5614	7.974108	-207.5753	8.437311	-403.9315	4.613924
		-205.5102	4.766324	-206.5843	7.871436	-206.5985	8.141696	-403.3562	4.661894
		-204.4687	5.640414	-205.5277	7.758622	-205.5158	7.831776	-402.786	4.699223
		-203.4371	6.514089	-204.4974	7.61794	-204.575	7.468908	-402.2797	4.746498
		-202.3521	6.975494	-203.4566	7.428437	-203.524	7.099867	-401.7098	4.786187
		-201.3641	6.858247	-202.4987	7.326735	-202.4855	6.775149	-401.2564	4.824494
		-200.3778	6.153405	-201.4935	7.183164	-201.5454	6.489194	-400.7278	4.846862
		-199.4981	5.083674	-200.4748	7.043918	-200.5815	6.238304	-400.0806	4.877839
		-198.6438	4.003724	-199.539	7.021276	-199.6814	5.994996	-399.6292	4.928671
		-197.6417	3.324177	-198.5378	6.891155	-198.6996	5.790466	-399.0477	4.960199
		-196.6573	3.200561	-197.4914	6.807807	-197.6189	5.641393	-398.4318	5.019965
		-195.6502	3.724266	-196.5266	6.747595	-196.5153	5.553611	-397.9349	5.089098
		-194.4859	4.6158	-195.5022	6.636391	-195.4088	5.537593	-397.4822	5.114063
		-193.551	5.525594	-194.4505	6.577221	-194.3277	5.491327	-397.0598	5.173456
		-192.4749	6.073129	-193.591	6.536319	-193.4335	5.465807	-396.6279	5.202198
		-191.4681	5.988773	-192.5792	6.461082	-192.4822	5.439824	-396.1339	5.209667
		-190.4323	5.263726	-191.6236	6.395501	-191.3889	5.499007	-395.526	5.263652
		-189.3607	4.150963	-190.6271	6.326203	-190.4372	5.569482	-394.9749	5.300881
		-188.3866	3.073022	-189.5126	6.236391	-189.363	5.699846	-394.5034	5.354026
		-187.3646	2.385312	-188.4999	6.156703	-188.31	5.815379	-393.9774	5.404709
		-186.5454	2.452056	-187.5056	6.120364	-187.365	5.97237	-393.5798	5.45023
		-185.6122	3.033133	-186.4727	6.011831	-186.4503	6.215066	-393.0974	5.496052
		-184.5747	4.019985	-185.5069	5.885196	-185.4884	6.46965	-392.611	5.541363
		-183.5544	4.84883	-184.4779	5.763451	-184.4763	6.702829	-392.1827	5.599149
		-182.536	5.214456	-183.4378	5.586093	-183.5474	6.868502	-391.6732	5.633551
		-181.4651	4.955388	-182.466	5.459129	-182.4858	6.972632	-391.2862	5.663906
		-180.5439	4.091928	-181.5642	5.369538	-181.447	7.09022	-390.7842	5.706815
		-179.5684	2.971915	-180.5997	5.240667	-180.4814	7.266698	-390.2899	5.746037
		-178.4976	1.991623	-179.5773	5.118306	-179.5252	7.403143	-389.7705	5.808571
		-177.502	1.535781	-178.5739	5.009894	-178.6168	7.532163	-389.2498	5.866578
		-176.4962	1.7652	-177.5013	4.862546	-177.5898	7.588514	-388.7096	5.932691
		-175.5062	2.54958	-176.4542	4.755244	-176.6573	7.680575	-388.2136	5.976299
		-174.611	3.549187	-175.42	4.663668	-175.603	7.760345	-387.7381	6.008291
		-173.7515	4.343508	-174.4604	4.53232	-174.5753	7.808787	-387.2368	6.044444
		-172.7628	4.579351	-173.4431	4.446381	-173.6481	7.799221	-386.8234	6.077869
		-171.692	4.172982	-172.5773	4.394983	-172.605	7.677659	-386.2795	6.124064
		-170.5415	3.244757	-171.7019	4.326405	-171.6008	7.50866	-385.7433	6.17527
		-169.4624	2.124399	-170.6687	4.257121	-170.5277	7.33784	-385.2064	6.207177
		-168.4477	1.23284	-169.7669	4.211701	-169.5367	7.191778	-384.6526	6.278073
		-167.4795	0.840173	-168.6633	4.088879	-168.5329	7.029123	-384.1329	6.287498
		-166.6028	1.128444	-167.6611	4.026456	-167.5472	6.803988	-383.6742	6.294148
		-165.5667	1.91907	-166.7891	3.994733	-166.6745	6.520861	-383.201	6.380354
		-164.6573	2.906204	-165.709	3.917712	-165.5524	6.19969	-382.7899	6.384472
		-163.729	3.742344	-164.8171	3.880977	-164.5219	5.875151	-382.2764	6.431679
		-162.7034	4.015263	-163.7204	3.825193	-163.4995	5.587337	-381.7474	6.499958
		-161.7593	3.700405	-162.6189	3.767387	-162.3148	5.211838	-381.1392	6.525341
		-160.6819	2.823517	-161.5896	3.732906	-161.4935	4.778775	-380.6198	6.590485
		-159.5727	1.729317	-160.5217	3.703277	-160.5227	4.355004	-380.1483	6.675854
		-158.518	0.780721	-159.5654	3.609562	-159.5935	3.946507	-379.6751	6.73888
		-157.462	0.299335	-158.6792	3.526848	-158.7112	3.635367	-379.2399	6.803297
		-156.4592	0.462037	-157.6958	3.428093	-157.569	3.36683	-378.6673	6.853001
		-155.5974	1.170848	-156.7458	3.279078	-156.5946	3.070515	-378.1905	6.901189
		-154.5971	2.181233	-155.7456	3.229847	-155.6046	2.744368	-377.6806	6.952405
		-153.6194	3.067776	-154.6563	3.139141	-154.6668	2.431403	-377.1123	6.971422
		-152.6192	3.527141	-153.7046	3.021356	-153.7379	2.147732	-376.6124	7.014933
		-151.5734	3.368857	-152.7193	2.963313	-152.7239	1.930714	-376.1141	7.08597
		-150.5412	2.620438	-151.7092	2.846256	-151.6203	1.6771	-375.6261	7.13012
		-149.4918	1.548252	-150.6016	2.740977	-150.595	1.448548	-375.2585	7.198789
		-148.4447	0.502661	-149.4723	2.673567	-149.6232	1.293042	-374.8194	7.254569
		-147.4026	0.118812	-148.4232	2.603215	-148.6468	1.159818	-374.3805	7.297526
		-146.4179	0.148337	-147.4564	2.493651	-147.6743	1.16255	-373.7541	7.362221
		-145.4352	0.463039	-146.6699	2.45811	-146.581	1.194111	-373.2136	7.428926
		-144.4981	1.433123	-145.7506	2.414621	-145.5396	1.193456	-372.6585	7.467106
		-143.5266	2.426843	-144.7404	2.355904	-144.5054	1.166784	-372.0473	7.502751
		-142.607	3.058756	-143.7644	2.328659	-143.521	1.197654	-371.6306	7.546585
		-141.6606	3.138558	-142.6202	2.303696	-142.5327	1.293292	-371.0685	7.599575
		-140.6185	2.547942	-141.7151	2.196509	-141.4833	1.447503	-370.5178	7.651784
		-139.7642	1.552954	-140.7027	2.196828	-140.4748	1.627157	-369.9789	7.702753
		-138.7297	0.477041	-139.6605	2.188125	-139.4459	1.785407	-369.4868	7.751179
		-137.7444	0.334369	-138.6742	2.122275	-138.5114	1.980076	-368.9199	7.767214
		-136.7293	0.490499	-137.6103	2.164	-137.6205	2.260925	-368.52	7.83346
		-135.561	0.002847	-136.6207	2.11799	-136.6233	2.554239	-368.1667	7.870051
		-134.5876	0.941537	-135.6218	2.087951	-135.6139	2.841211	-367.6272	7.911947
		-133.5719	2.005613	-134.6255	2.061883	-134.6252	3.047027	-367.2362	7.984779
		-132.6611	2.733929	-133.7003	2.064298	-133.5537	3.182072	-366.7042	8.024144
		-131.6339	2.847798	-132.6314	2.002327	-132.5905	3.347714	-366.1115	8.115948
		-130.6515	2.301752	-131.6738	1.964488	-131.6002	3.541953	-365.598	8.178295
		-129.6635	1.306249	-130.6604	1.941804	-130.5904	3.756235	-365.0575	8.221394
		-128.59	0.210549	-129.649	1.856053	-129.6299	3.926587	-364.5265	8.276299
		-127.6324	0.566994	-128.7076	1.829912	-128.5771	4.07402	-363.9938	8.287675
		-126.6355	0.720618	-127.7467	1.794255	-127.5571	4.206196	-363.4381	8.345486
		-125.6353	0.211485	-126.8109	1.744756	-126.5246	4.313113	-362.8877	8.365213
		-124.7131	0.774064	-125.7367	1.684119	-125.5481	4.389526	-362.4964	8.379161
		-123.7389	1.828184	-124.8131	1.627755	-124.6011	4.410228	-362.1259	8.420899
		-122.6965	2.55736	-123.6835	1.550679	-123.7062	4.375194	-361.6477	8.438953
		-121.7158	2.673252	-122.6456	1.45282	-122.7685	4.262045	-361.2412	8.514406
		-120.7014	2.092563	-121.7389	1.416069	-121.761	4.209934	-360.7159	8.595494
		-119.6734	1.109591	-120.6152	1.346145	-120.8612	4.086492	-360.213	8.6562
		-118.7356	0.046956	-119.7088	1.277592	-119.7358	3.926341	-359.8124	8.71187
		-117.6836	0.749505	-118.7013	1.275965	-118.6343	3.74687	-359.2854	8.739502
		-116.6983	0.929858	-117.6486	1.233363	-117.6123	3.472623	-358.7086	8.764076
		-115.7984	0.474316	-116.692	1.208023	-116.4995	3.231469	-358.2288	8.768445
		-114.7448	0.4101	-115.7063	1.215899	-115.599	2.989813	-357.749	8.780042
		-113.7905	1.465057	-114.721	1.184279	-114.6523	2.686393	-357.2477	8.800534
		-112.7969	2.282287	-113.6541	1.166466	-113.6812	2.306093	-356.8	8.815137
		-111.6718	2.547845	-112.71	1.188143	-112.7536	1.929643	-356.2809	8.876301
		-110.6812	2.211149	-111.7068	1.195019	-111.8307	1.568749	-355.7565	8.921952
		-109.6979	1.387801	-110.6086	1.155038	-110.845	1.287095	-355.2566	8.977545
		-108.658	0.3078	-109.5654	1.190217	-109.8161	1.05942	-354.7104	9.032163
		-107.6826	0.618352	-108.4797	1.192387	-108.8109	0.805083	-354.1973	9.067673
		-106.6738	1.10123	-107.4092	1.185707	-107.7922	0.510606	-353.6214	9.125979
		-105.6624	1.036807	-106.5048	1.28931	-106.862	0.224243	-353.2126	9.160901
		-104.6424	0.366849	-105.5481	1.262538	-105.9266	0.017233	-352.6988	9.207151
		-103.6362	0.576289	-104.5367	1.241963	-104.8095	0.229815	-352.1863	9.257576
		-102.6169	1.587382	-103.5672	1.230826	-103.764	0.433041	-351.6765	9.289617
		-101.4883	2.273265	-102.5175	1.172738	-102.7853	0.597211	-351.1257	9.369978
		-100.4623	2.407465	-101.5404	1.138708	-101.7316	0.722348	-350.704	9.405309
		-99.45747	1.994339	-100.597	1.110866	-100.7994	0.76422	-350.2018	9.424759
		-98.52893	1.147162	-99.67706	1.054387	-99.75894	0.725929	-349.7061	9.452926
		-97.7252	0.121137	-98.74753	0.977011	-98.62931	0.651363	-349.1732	9.43838
		-96.72797	0.742315	-97.7579	0.947276	-97.57132	0.596958	-348.6683	9.505202
		-95.72942	1.209543	-96.77157	0.888701	-96.57145	0.557911	-348.1036	9.535742
		-94.69257	1.185139	-95.81066	0.838642	-95.54749	0.455547	-347.7536	9.593936
		-93.64153	0.580627	-94.84744	0.834308	-94.57832	0.307696	-347.2457	9.651523
		-92.6192	0.343118	-93.81885	0.801926	-93.55072	0.099576	-346.8168	9.666986
		-91.76298	1.344014	-92.88238	0.765232	-92.48779	0.12785	-346.3941	9.742934
		-90.79811	2.074163	-91.69363	0.787183	-91.514	0.299089	-345.8787	9.775579
		-89.82697	2.272865	-90.62344	0.756914	-90.50654	0.58653	-345.4346	9.7784
		-88.90932	1.901072	-89.6404	0.721071	-89.62291	0.948808	-344.7451	9.775816
		-87.85002	1.084751	-88.62766	0.741923	-88.6729	1.275896	-344.2072	9.795731
		-86.80656	0.055485	-87.70044	0.712382	-87.78332	1.636816	-343.6138	9.823708
		-85.7225	0.822309	-86.66887	0.714593	-86.77387	1.860211	-343.0881	9.868343
		-84.72295	1.277715	-85.6264	0.750345	-85.7007	2.03609	-342.6879	9.920351
		-83.71417	1.181516	-84.54827	0.766036	-84.65592	2.288978	-342.2207	9.948467
		-82.67236	0.513967	-83.54874	0.774422	-83.55567	2.542221	-341.8267	9.978828
		-81.6692	0.470539	-82.57166	0.81231	-82.57826	2.750355	-341.3135	10.059254
		-80.66537	1.464089	-81.6091	0.858793	-81.60646	2.946862	-340.8196	10.112209
		-79.61134	2.087932	-80.62277	0.894631	-80.74098	3.126595	-340.3157	10.141528
		-78.62666	2.174838	-79.61102	0.939899	-79.70743	3.292926	-339.7883	10.172354
		-77.63208	1.592235	-78.56194	0.931883	-78.76073	3.467237	-339.3323	10.170852
		-76.61636	0.642207	-77.59048	0.891424	-77.82459	3.549392	-338.807	10.212812
		-75.6581	0.397925	-76.60382	0.865975	-76.72797	3.564234	-338.2829	10.240017
		-74.70512	1.171059	-75.53031	0.850078	-75.74693	3.49595	-337.7424	10.266114
		-73.67191	1.343041	-74.57733	0.809153	-74.66055	3.414348	-337.2094	10.293117
		-72.56439	0.899023	-73.6478	0.810564	-73.63757	3.360398	-336.686	10.296028
		-71.54504	0.00253	-72.64826	0.760906	-72.66312	3.285594	-336.2287	10.337746
		-70.55607	1.052145	-71.73161	0.703472	-71.62495	3.14827	-335.7327	10.368462
		-69.6655	1.871289	-70.88496	0.680616	-70.59669	2.954385	-335.1575	10.391934
		-68.65968	2.126981	-69.81541	0.627403	-69.56347	2.718162	-334.6632	10.43071
		-67.65256	1.787485	-68.74686	0.593444	-68.49228	2.480613	-334.0503	10.438872
		-66.59854	0.94838	-67.75558	0.600316	-67.52246	2.262636	-333.5662	10.483235
		-65.52238	0.100227	-66.66623	0.595393	-66.59721	1.958907	-333.2443	10.511122
		-64.63216	0.977623	-65.66306	0.538846	-65.68287	1.605714	-332.8368	10.523782
		-63.65209	1.416242	-64.67046	0.553467	-64.78933	1.242188	-332.3907	10.549297
		-62.64727	1.253836	-63.69172	0.540956	-63.83173	0.925295	-331.7785	10.552832
		-61.64906	0.563345	-62.68723	0.527044	-62.74138	0.684375	-331.1511	10.595449
		-60.68848	0.426991	-61.7151	0.56325	-61.796	0.469234	-330.5643	10.605613
		-59.71503	1.428643	-60.80901	0.563262	-60.76245	0.221372	-330.0568	10.617662
		-58.69965	2.033292	-59.78173	0.546949	-59.78999	0.021951	-329.4641	10.625686
		-57.66411	2.136767	-58.70195	0.589572	-58.92484	0.270818	-328.9826	10.614256
		-56.65368	1.571648	-57.69053	0.611367	-57.82129	0.476071	-328.5471	10.673613
		-55.58216	0.629737	-56.61108	0.613755	-56.7851	0.665035	-328.0954	10.721
		-54.67739	0.420504	-55.63235	0.647403	-55.66999	0.869336	-327.712	10.777758
		-53.82248	1.233619	-54.65427	0.652327	-54.61399	0.991703	-327.2874	10.853957
		-52.85035	1.488611	-53.66861	0.680334	-53.51572	1.068787	-326.7375	10.887713
		-51.82935	1.195825	-52.68921	0.734624	-52.52543	1.06562	-326.1475	10.950616
		-50.68254	0.397678	-51.69859	0.757273	-51.6091	1.00035	-325.7803	10.972581
		-49.55884	0.624653	-50.6832	0.744941	-50.62145	0.923063	-325.3025	10.964793
		-48.52397	1.537576	-49.63876	0.732072	-49.69819	0.882684	-324.7543	10.960231
		-47.55647	2.038557	-48.69106	0.719033	-48.69832	0.798264	-324.229	10.939013
		-46.62693	1.973056	-47.62548	0.682204	-47.70077	0.663124	-323.6996	10.979356
		-45.73471	1.309054	-46.54009	0.689385	-46.6157	0.483708	-323.0854	11.022431
		-44.72857	0.341556	-45.52932	0.674031	-45.60989	0.242892	-322.6555	11.061266
		-43.68049	0.671038	-44.47068	0.631911	-44.54597	0.03461	-322.3375	11.112167
		-42.65355	1.355554	-43.48138	0.62654	-43.51869	0.181339	-321.7689	11.125693
		-41.62066	1.432134	-42.5634	0.601001	-42.63935	0.500206	-321.3046	11.16354
		-40.59008	0.923314	-41.5523	0.558376	-41.54207	0.841975	-320.8404	11.181
		-39.5988	0.028661	-40.6723	0.545433	-40.60428	1.205055	-320.3104	11.174471
		-38.67125	1.095598	-39.70116	0.529884	-39.59682	1.519522	-319.8801	11.168045
		-37.63571	1.878122	-38.69535	0.461329	-38.59761	1.738894	-319.3693	11.163622
		-36.61901	2.07925	-37.7252	0.479628	-37.6017	1.934416	-318.8753	11.208447
		-35.65216	1.645738	-36.59952	0.46299	-36.56749	2.151114	-318.3344	11.230886
		-34.64899	0.73657	-35.60329	0.426582	-35.62508	2.426287	-317.7589	11.276851
		-33.66596	0.359986	-34.64074	0.46469	-34.57139	2.664598	-317.2537	11.310849
		-32.6902	1.192225	-33.61346	0.465367	-33.69139	2.863398	-316.7633	11.308463
		-31.59391	1.454764	-32.62581	0.467775	-32.71695	3.054163	-316.3119	11.359904
		-30.58579	1.015473	-31.67415	0.529006	-31.63486	3.220464	-315.8351	11.372651
		-29.59649	0.109705	-30.63466	0.572372	-30.66471	3.349852	-315.2946	11.383849
		-28.59728	0.980923	-29.66418	0.601256	-29.69324	3.481801	-314.7041	11.4236
		-27.6651	1.7968	-28.70757	0.638957	-28.73365	3.538315	-314.087	11.437779
		-26.63453	1.96329	-27.56505	0.668146	-27.78629	3.499688	-313.7274	11.50225
		-25.60329	1.464229	-26.59886	0.668517	-26.79633	3.419641	-313.2252	11.535398
		-24.6414	0.476407	-25.56763	0.677306	-25.74924	3.328754	-312.7573	11.550714
		-23.69535	0.596095	-24.62158	0.736076	-24.76753	3.213756	-312.3441	11.565042
		-22.72355	1.302344	-23.70691	0.695917	-23.75941	3.062776	-311.6926	11.536488
		-21.73227	1.260627	-22.80247	0.693675	-22.69812	2.893946	-311.3532	11.556045
		-20.81198	0.595147	-21.84685	0.692938	-21.56518	2.673615	-310.7833	11.543899
		-19.83886	0.488214	-20.85722	0.643101	-20.5072	2.455362	-310.2675	11.541114
		-18.7997	1.467649	-19.83589	0.663711	-19.51328	2.249404	-309.789	11.515443
		-17.76714	1.940998	-18.76337	0.643422	-18.56195	1.985899	-309.2392	11.535267
		-16.66623	1.741736	-17.73148	0.610951	-17.7503	1.639665	-308.7505	11.517918
		-15.69178	0.919685	-16.59919	0.578598	-16.75505	1.273413	-308.3417	11.492772
		-14.64106	0.135364	-15.58546	0.557184	-15.74957	0.933668	-307.856	11.575536
		-13.72969	1.024844	-14.57337	0.529121	-14.73451	0.667514	-307.2576	11.55942
		-12.64529	1.420374	-13.65705	0.511405	-13.67356	0.479092	-306.8089	11.616957
		-11.57245	1.122207	-12.75624	0.49058	-12.67666	0.2608	-306.2195	11.65189
		-10.6657	0.3199	-11.81845	0.420612	-11.73755	0.003439	-305.6039	11.589798
		-9.711069	0.72255	-10.82783	0.421538	-10.79415	0.265967	-305.0842	11.587074
		-8.796394	1.627251	-9.725927	0.419309	-9.787677	0.482753	-304.6028	11.581883
		-7.740391	1.987167	-8.640536	0.396369	-8.832717	0.677722	-304.0391	11.607146
		-6.752411	1.777171	-7.555474	0.440534	-7.785629	0.852195	-303.6376	11.64342
		-5.647206	1.020005	-6.572778	0.429285	-6.741183	1.016133	-303.2723	11.680252
		-4.690596	0.030341	-5.546493	0.441301	-5.770704	1.138513	-302.7245	11.715051
		-3.729692	0.941419	-4.540021	0.509229	-4.784705	1.186911	-302.1956	11.743227
		-2.687888	1.486389	-3.603223	0.541649	-3.732004	1.154752	-301.6626	11.784162
		-1.686039	1.441043	-2.540616	0.557547	-2.664113	1.064512	-301.1056	11.765074
		-0.623762	0.785111	-1.597543	0.597898	-1.617686	0.997925	-300.5881	11.756693
		0.424647	0.19091	-0.584467	0.593577	-0.540219	0.937344	-300.0726	11.758833
		1.376304	1.230811	0.441817	0.622821	0.434553	0.875866	-299.6133	11.760216
		2.27744	1.896433	1.344604	0.685019	1.409655	0.738297	-299.0474	11.796253
		3.199049	1.99047	2.355039	0.671544	2.27678	0.498619	-298.6607	11.811845
		4.177123	1.439255	3.383965	0.679153	3.262119	0.24632	-298.2453	11.872679
		5.185576	0.469629	4.368643	0.667782	4.275855	0.00518	-297.7823	11.895211
		6.269978	0.596835	5.442808	0.634629	5.260533	0.259508	-297.3986	11.914548
		7.27645	1.336838	6.414608	0.633761	6.302999	0.548295	-296.8204	11.935092
		8.243958	1.465963	7.313763	0.588171	7.344142	0.884917	-296.3245	11.867502
		9.215097	0.938687	8.219192	0.528818	8.284573	1.220525	-295.9163	11.867702
		10.13539	0.059312	9.125941	0.53365	9.248778	1.508676	-295.348	11.880194
		11.18346	1.117706	10.13704	0.470757	10.33912	1.716703	-294.8874	11.885179
		12.17409	1.842458	11.16101	0.455617	11.20394	1.919163	-294.3307	11.925956
		13.22778	1.928479	12.29593	0.460161	12.19159	2.16749	-293.7472	11.91657
		14.26628	1.348337	13.3341	0.368777	13.12277	2.430361	-293.2212	11.922037
		15.25459	0.336379	14.27222	0.351771	14.08929	2.645764	-292.7325	11.930496
		16.18974	0.713876	15.18624	0.32136	15.10831	2.844986	-292.2886	11.929196
		17.13479	1.416019	16.07945	0.267815	16.12601	3.018193	-291.6933	11.950816
		18.21622	1.446007	17.0245	0.302119	17.20578	3.175066	-291.1907	11.926833
		19.11868	0.848086	18.04319	0.304416	18.21292	3.301199	-290.6284	11.937123
		20.176	0.175539	19.08698	0.363345	19.23458	3.368659	-290.1017	11.96395
		21.20361	1.230998	20.08784	0.433343	20.20539	3.345937	-289.6635	11.992848
		22.23352	1.868198	21.18016	0.448113	21.17653	3.262966	-289.2339	12.044483
		23.55831	1.72658	22.25334	0.532189	22.12621	3.189721	-288.7482	12.069336
		24.75168	1.019302	23.29943	0.538819	23.05574	3.125166	-288.3741	12.079584
		25.98104	0.059447	24.4043	0.567446	24.11372	3.04678	-287.8814	12.071272
		27.09418	1.136975	25.37578	0.632944	25.13109	2.897836	-287.3191	12.049571
		28.09734	1.669934	26.30399	0.642046	26.22045	2.689562	-286.8719	12.022087
		29.11703	1.680138	27.22593	0.623586	27.34546	2.458426	-286.3677	11.973725
		30.11722	1.052025	28.08315	0.635657	28.33641	2.238155	-285.8552	11.96878
		31.07549	0.01381	29.04207	0.611417	29.30623	2.052689	-285.2837	11.965279
		32.08229	1.063274	30.00891	0.605132	30.20176	1.798959	-284.7576	11.979588
		33.07852	1.790667	31.07483	0.60175	31.21846	1.437924	-284.1098	12.027623
		34.07146	1.863888	32.11366	0.550117	32.17012	1.107181	-283.6987	12.024023
		35.19978	1.24754	33.1548	0.524014	33.17957	0.731227	-283.3529	12.049942
		36.12766	0.196322	34.19826	0.43518	34.2085	0.466784	-282.7952	12.053974
		37.12191	0.84179	35.26383	0.435544	35.15388	0.270329	-282.3897	12.040918
		38.09735	1.497046	36.35814	0.400878	36.16563	0.020748	-281.8052	12.037325
		39.09094	1.417621	37.3481	0.367509	37.14932	0.231369	-281.229	11.984258
		40.16742	0.710357	38.34599	0.398306	38.04286	0.468584	-280.7192	11.969366
		41.13426	0.380837	39.29468	0.381748	39.02721	0.667535	-280.1843	11.958569
		42.04233	1.367393	40.2361	0.39505	40.03269	0.836199	-279.6071	11.955948
		43.01083	1.891866	41.25611	0.398166	41.06393	0.971525	-279.1088	11.998841
		43.99452	1.726634	42.24508	0.401034	42.22031	1.100795	-278.6392	11.992674
		45.0208	0.916499	43.18584	0.455222	43.18287	1.184451	-278.1092	12.00597
		46.07351	0.144803	44.15236	0.512836	44.21906	1.186454	-277.6631	12.02411
		47.05653	1.069593	45.10072	0.572347	45.21695	1.115754	-277.1807	12.01922
		48.03197	1.451431	46.04181	0.651684	46.22408	1.055073	-276.7333	12.043075
		48.95126	1.08115	47.09021	0.669403	47.32169	1.002562	-276.2198	12.059579
		49.99472	0.197322	48.05508	0.690386	48.26245	0.962339	-275.6819	12.071719
		50.99888	0.897595	49.07311	0.741902	49.28807	0.842971	-275.1985	12.085572
		52.04266	1.724004	50.22289	0.721653	50.26549	0.659997	-274.6391	12.090282
		53.17759	1.920805	51.08374	0.720102	51.27493	0.437808	-274.2319	12.08759
		54.19595	1.434671	52.16484	0.733818	52.37254	0.198891	-273.7627	12.069368
		55.18459	0.446973	53.20797	0.688872	53.42359	0.015395	-273.2489	12.053304
		56.22176	0.616332	54.03777	0.7149	54.43666	0.309461	-272.7411	12.020723
		57.18565	1.315127	55.13109	0.710546	55.40318	0.658346	-272.1817	12.014532
		58.2007	1.304068	56.08209	0.655277	56.31686	1.022734	-271.7125	12.01216
		59.1725	0.647478	57.05653	0.692814	57.2289	1.36491	-271.2099	12.038428
		60.01981	0.427713	58.08711	0.688086	58.15975	1.627745	-270.7753	12.121114
		60.95364	1.414872	59.08566	0.659132	59.09556	1.838243	-270.2615	12.094033
		61.94492	1.964801	60.07727	0.678172	60.10071	2.080097	-269.7887	12.12092
		62.96857	1.81865	61.04412	0.607249	61.00086	2.341369	-269.3607	12.152139
		64.03943	1.066769	62.06314	0.541473	61.96804	2.620068	-268.7961	12.103577
		64.99405	0.006933	63.05739	0.569009	62.93026	2.854465	-268.3073	12.168494
		65.96487	0.958623	64.03678	0.556065	63.92385	3.063466	-267.7292	12.148983
		67.00964	1.411623	65.08684	0.572214	64.96929	3.252757	-267.1771	12.080431
		68.04814	1.164577	66.08869	0.620183	65.99887	3.418202	-266.6992	12.059376
		69.08202	0.344096	67.06876	0.609966	67.04959	3.557497	-266.267	12.016145
		70.05943	0.758773	68.13697	0.66544	68.01512	3.602791	-265.8704	12.009829
		71.02628	1.671788	69.08103	0.732373	68.95423	3.57637	-265.4035	12.022778
		72.07832	2.053514	70.15949	0.761939	69.87122	3.500092	-264.9475	12.045044
		73.16603	1.774397	71.21714	0.825929	70.79283	3.436847	-264.37	12.063962
		74.28246	0.929789	72.13313	0.85329	71.83265	3.386685	-263.8301	12.117471
		75.29554	0.130639	73.13895	0.833467	72.86224	3.308576	-263.3499	12.128697
		76.21913	0.999934	74.03249	0.901249	74.00575	3.170843	-262.7959	12.115919
		77.22989	1.320152	75.06967	0.917034	75.01915	2.996142	-262.2708	12.084271
		78.13631	0.949932	76.08936	0.917457	75.99921	2.783155	-261.8204	12.027202
		79.09589	0.04057	77.16682	0.954407	77.08097	2.588484	-261.2498	12.023742
		80.10831	1.04089	78.21424	0.928416	78.00159	2.392114	-260.8097	12.002871
		80.99623	1.864496	79.13551	0.917197	79.06783	2.087089	-260.3745	11.994447
		82.0146	2.078943	80.1684	0.932393	80.05283	1.739455	-259.8399	11.985408
		82.91441	1.578089	81.05534	0.907376	80.9751	1.391796	-259.3043	11.962939
		83.9407	0.580716	81.98289	0.873297	81.98553	1.07514	-258.8549	11.975017
		85.01089	0.472358	83.02998	0.879298	82.92531	0.862051	-258.2833	11.935668
		85.99557	1.176211	84.06948	0.830924	83.84724	0.683952	-257.7407	11.912107
		87.17904	1.18293	85.10897	0.830743	84.88145	0.451071	-257.3171	11.88094
		88.10758	0.545258	86.08242	0.834846	85.90907	0.181847	-256.7709	11.848936
		89.05428	0.489368	86.97333	0.758661	86.94823	0.043009	-256.3862	11.886425
		90.11821	1.470719	87.86025	0.804337	88.01016	0.241798	-255.9021	11.88001
		91.04543	2.019631	88.838	0.811892	89.01895	0.410288	-255.3094	11.884785
		92.08725	1.910771	89.96632	0.786369	90.02674	0.557225	-254.8309	11.876697
		93.08018	1.203869	90.96916	0.865235	90.96586	0.69429	-254.2699	11.851751
		94.06155	0.177595	91.98157	0.833132	91.94029	0.743853	-253.7475	11.844395
		95.03368	0.709666	92.98244	0.881384	92.95766	0.714472	-253.2657	11.803879
		95.99921	1.154851	93.93013	0.957758	93.92979	0.665109	-252.7027	11.770575
		97.01889	0.933973	94.97952	0.977382	94.99637	0.568186	-252.1292	11.746547
		97.97616	0.150281	96.07317	1.048822	96.11082	0.532482	-251.6299	11.740045
		98.98923	0.880294	97.14701	1.07075	97.01097	0.485489	-251.1861	11.792069
		99.41553	1.776414					-250.6492	11.80947
		99.39836	2.248332					-250.2213	11.826533
		98.91692	2.240057					-249.6754	11.832739
		97.99531	1.769602					-249.1669	11.795021
		97.11564	1.057975					-248.7607	11.801835
		96.16893	0.234442					-248.2486	11.76318
		95.18558	0.55093					-247.8018	11.72602
		94.10745	1.162968					-247.3613	11.694756
		91.97926	1.459709					-246.7835	11.661401
		90.57258	1.024595					-246.3142	11.679724
								-245.8259	11.690712
								-245.3058	11.706017
								-244.8356	11.696624
								-244.3185	11.664946
								-243.7974	11.653298
								-243.2248	11.610873
								-242.7543	11.584738
								-242.2883	11.568686
								-241.7197	11.557628
								-241.2568	11.569594
								-240.7479	11.568652
								-240.1968	11.560297
								-239.8141	11.519378
								-239.2897	11.497418
								-238.7092	11.511
								-238.2113	11.493762
								-237.5967	11.491454
								-237.1021	11.473745
								-236.6682	11.42303
								-236.2231	11.421505
								-235.8334	11.397755
								-235.3256	11.370936
								-234.8207	11.385172
								-234.3036	11.337677
								-233.8717	11.359191
								-233.3559	11.339916
								-232.8573	11.283941
								-232.3111	11.273425
								-231.6788	11.236253
								-231.2974	11.181636
								-230.7856	11.136557
								-230.3355	11.140678
								-229.9482	11.025486
								-229.331	11.03045
								-228.8238	11.010284
								-228.4583	10.930128
								-227.8976	10.950226
								-227.4528	10.917597
								-226.9538	10.913287
								-226.3426	10.945889
								-225.8638	10.943042
								-225.2969	10.938952
								-224.8838	10.908404
								-224.3498	10.837872
								-223.7554	10.818948
								-223.2687	10.778508
								-222.677	10.740176
								-222.1671	10.712356
								-221.7666	10.670657
								-221.2568	10.663181
								-220.776	10.642055
								-220.3243	10.619167
								-219.8128	10.581031
								-219.3495	10.527803
								-218.8872	10.522797
								-218.2786	10.487292
								-217.7652	10.458727
								-217.3197	10.43113
								-216.8109	10.392397
								-216.4301	10.361428
								-215.9325	10.311554
								-215.3741	10.251669
								-214.8484	10.182639
								-214.3019	10.144132
								-213.7227	10.156674
								-213.2242	10.148808
								-212.6658	10.146446
								-212.151	10.129834
								-211.6718	10.080804
								-211.2277	10.058515
								-210.8777	10.003335
								-210.4042	9.937936
								-209.9316	9.867292
								-209.3548	9.799719
								-208.7868	9.761973
								-208.3199	9.72123
								-207.846	9.692444
								-207.4719	9.652604
								-206.972	9.591558
								-206.3585	9.57443
								-205.7162	9.51021
								-205.0644	9.457433
								-204.469	9.420329
								-203.9727	9.368512
								-203.5246	9.343826
								-203.0485	9.297045
								-202.6001	9.251316
								-202.1606	9.190385
								-201.6923	9.133086
								-201.2043	9.115932
								-200.6984	9.061702
								-200.2724	9.013354
								-199.7979	8.993616
								-199.3201	8.947216
								-198.8783	8.944042
								-198.3321	8.933545
								-197.854	8.90586
								-197.3547	8.859985
								-196.7854	8.797451
								-196.2495	8.746619
								-195.7723	8.673747
								-195.2486	8.65062
								-194.8824	8.60915
								-194.3723	8.564893
								-193.9037	8.53864
								-193.518	8.528605
								-192.8969	8.489534
								-192.4538	8.433257
								-191.9951	8.402418
								-191.3737	8.271198
								-190.8734	8.209684
								-190.3404	8.165704
								-189.7332	8.094529
								-189.3432	8.082582
								-188.8608	8.077017
								-188.3262	8.040933
								-187.8154	8.002127
								-187.2593	7.963279
								-186.7032	7.887935
								-186.2056	7.822828
								-185.8001	7.77603
								-185.2447	7.718896
								-184.8428	7.677426
								-184.4268	7.648168
								-183.8555	7.595854
								-183.3856	7.562077
								-182.8388	7.518355
								-182.3091	7.487486
								-181.8346	7.44185
								-181.3707	7.369898
								-180.9001	7.326043
								-180.3058	7.269009
								-179.7246	7.22934
								-179.2422	7.223545
								-178.8056	7.15685
								-178.3694	7.09996
								-177.9072	7.049144
								-177.3785	6.968188
								-176.833	6.92338
								-176.3397	6.87093
								-175.7991	6.829973
								-175.2916	6.807826
								-174.7599	6.790646
								-174.2541	6.780932
								-173.8631	6.790779
								-173.3678	6.745789
								-172.7965	6.694921
								-172.2794	6.624701
								-171.6936	6.523424
								-171.2023	6.47861
								-170.6786	6.426704
								-170.2493	6.410984
								-169.7408	6.395791
								-169.2068	6.357545
								-168.7858	6.332174
								-168.2397	6.274853
								-167.6938	6.242538
								-167.2114	6.198241
								-166.756	6.166814
								-166.2287	6.12904
								-165.7885	6.064908
								-165.279	6.036563
								-164.6771	5.977021
								-164.1738	5.927401
								-163.7522	5.875935
								-163.2284	5.808162
								-162.8411	5.777418
								-162.4676	5.733209
								-161.899	5.694048
								-161.3991	5.677092
								-160.8675	5.630705
								-160.2784	5.608971
								-159.8451	5.582843
								-159.3878	5.538434
								-158.9156	5.494966
								-158.4814	5.456592
								-157.9662	5.389857
								-157.4828	5.35425
								-156.9363	5.317947
								-156.3912	5.259247
								-155.9305	5.243382
								-155.4336	5.20342
								-154.8785	5.145896
								-154.37	5.14846
								-153.8482	5.106048
								-153.3807	5.063844
								-152.9653	5.052786
								-152.4247	4.973244
								-151.862	4.932913
								-151.2862	4.892467
								-150.8919	4.836712
								-150.4517	4.828317
								-150.0036	4.800819
								-149.5186	4.761549
								-148.8647	4.742717
								-148.3566	4.68706
								-147.7552	4.644889
								-147.3596	4.619239
								-146.9261	4.582792
								-146.4004	4.558868
								-145.9853	4.54264
								-145.4098	4.523552
								-144.9633	4.50632
								-144.538	4.471794
								-144.0751	4.428256
								-143.5237	4.384903
								-142.9623	4.357935
								-142.4218	4.342006
								-141.8838	4.347635
								-141.4222	4.320997
								-140.8952	4.282756
								-140.3946	4.266079
								-139.8966	4.205357
								-139.3766	4.179993
								-138.8433	4.14195
								-138.2529	4.093232
								-137.6793	4.093263
								-137.1823	4.072592
								-136.7299	4.063898
								-136.2429	4.060636
								-135.7555	4.033813
								-135.249	4.015848
								-134.6282	3.987724
								-134.1841	3.951703
								-133.732	3.889655
								-133.2185	3.852481
								-132.8923	3.828723
								-132.4455	3.817082
								-131.9096	3.816441
								-131.4222	3.793605
								-130.8727	3.780946
								-130.3804	3.753486
								-129.9218	3.745946
								-129.4905	3.755014
								-129.0583	3.71575
								-128.5303	3.696535
								-128.0627	3.676554
								-127.5868	3.64176
								-126.9872	3.649717
								-126.5715	3.627735
								-126.02	3.59518
								-125.4141	3.568128
								-124.9402	3.537715
								-124.3112	3.518085
								-123.8773	3.514684
								-123.3939	3.523266
								-122.9058	3.515988
								-122.4396	3.520083
								-121.9211	3.519314
								-121.4688	3.49396
								-120.9886	3.487539
								-120.4441	3.470397
								-119.9475	3.463878
								-119.4538	3.460317
								-118.8816	3.422926
								-118.4041	3.457317
								-117.9237	3.439423
								-117.3874	3.390918
								-116.942	3.423978
								-116.5124	3.372951
								-116.0137	3.316699
								-115.5954	3.37317
								-115.0598	3.345779
								-114.5592	3.338013
								-113.9906	3.393563
								-113.4526	3.355466
								-112.9151	3.349108
								-112.3052	3.350768
								-111.8406	3.337751
								-111.3433	3.340884
								-110.9352	3.341461
								-110.4976	3.327424
								-109.9541	3.309146
								-109.3561	3.296179
								-108.8037	3.299874
								-108.3235	3.294337
								-107.9326	3.274017
								-107.4557	3.295014
								-106.9935	3.268142
								-106.5378	3.245779
								-105.9635	3.256409
								-105.4497	3.204477
								-104.9194	3.210569
								-104.3637	3.265853
								-103.9063	3.267462
								-103.3602	3.289588
								-102.8969	3.271809
								-102.3643	3.232159
								-101.764	3.224241
								-101.2663	3.207483
								-100.6485	3.204664
								-100.1334	3.160852
								-99.70314	3.150073
								-99.21675	3.153532
								-98.90009	3.155786
								-98.451	3.193136
								-97.93521	3.209662
								-97.47292	3.224291
								-96.88482	3.253489
								-96.3763	3.249881
								-95.81066	3.231167
								-95.27902	3.207096
								-94.76357	3.20346
								-94.25967	3.194848
								-93.88026	3.191101
								-93.42788	3.202221
								-92.95602	3.175605
								-92.44849	3.182238
								-91.95152	3.223054
								-91.45754	3.216291
								-90.9226	3.213725
								-90.47088	3.189766
								-89.98712	3.164889
								-89.50964	3.178231
								-89.02126	3.191348
								-88.487	3.226164
								-87.91409	3.212992
								-87.48085	3.200104
								-87.02814	3.198018
								-86.53447	3.177701
								-86.03322	3.183846
								-85.45337	3.200019
								-84.9125	3.203566
								-84.30392	3.229541
								-83.83338	3.239383
								-83.28557	3.243522
								-82.83219	3.238107
								-82.42504	3.252801
								-81.93996	3.246015
								-81.45918	3.217474
								-80.96124	3.227058
								-80.58414	3.243312
								-80.03566	3.291265
								-79.61102	3.291667
								-79.08764	3.310634
								-78.50482	3.308838
								-77.97088	3.243137
								-77.43132	3.215871
								-76.91158	3.17743
								-76.39215	3.135115
								-75.92194	3.155706
								-75.42596	3.220883
								-74.92307	3.234773
								-74.40199	3.233555
								-74.05264	3.264582
								-73.49756	3.2645
								-73.00522	3.289971
								-72.50133	3.321549
								-71.87954	3.303304
								-71.52655	3.289298
								-71.04181	3.29253
								-70.49664	3.277732
								-70	3.301684
								-69.38812	3.306215
								-68.85451	3.288079
								-68.38396	3.290755
								-67.86422	3.274248
								-67.35075	3.282586
								-66.85246	3.302748
								-66.39182	3.30697
								-65.8658	3.331649
								-65.3705	3.338992
								-64.88773	3.334729
								-64.35873	3.341301
								-63.94498	3.354546
								-63.5111	3.347798
								-63.0815	3.366124
								-62.57397	3.366419
								-61.99115	3.340097
								-61.42088	3.355026
								-60.83113	3.339576
								-60.33054	3.363607
								-59.78503	3.364194
								-59.36996	3.36221
								-58.88522	3.397242
								-58.35887	3.389093
								-57.922	3.409066
								-57.40919	3.457081
								-56.89803	3.443952
								-56.40569	3.456142
								-55.93019	3.444527
								-55.39196	3.398664
								-54.92504	3.392134
								-54.48752	3.389241
								-53.91032	3.413734
								-53.41732	3.433219
								-52.91045	3.452474
								-52.4115	3.462798
								-51.94658	3.460116
								-51.409	3.469591
								-50.84996	3.448046
								-50.37908	3.434527
								-49.88971	3.429364
								-49.38317	3.42351
								-48.84229	3.453549
								-48.21291	3.473864
								-47.74667	3.505623
								-47.31905	3.503506
								-46.89968	3.496194
								-46.45621	3.501299
								-45.91203	3.471785
								-45.40814	3.47953
								-44.96896	3.507669
								-44.58658	3.497737
								-44.16689	3.537659
								-43.61082	3.569711
								-43.0498	3.541651
								-42.46037	3.553783
								-41.92874	3.550688
								-41.45027	3.536929
								-40.93746	3.556434
								-40.44975	3.551728
								-39.93098	3.536053
								-39.46903	3.542439
								-39.03414	3.555052
								-38.5035	3.584182
								-37.95139	3.577459
								-37.46434	3.564286
								-36.91685	3.537826
								-36.36376	3.495771
								-35.95793	3.502053
								-35.48012	3.531202
								-35.02939	3.545843
								-34.52087	3.573804
								-33.9648	3.583628
								-33.38298	3.578102
								-32.8312	3.579801
								-32.38013	3.577214
								-31.85973	3.563304
								-31.34295	3.529413
								-30.93977	3.533197
								-30.42993	3.531074
								-29.93264	3.540506
								-29.44129	3.566591
								-28.88357	3.561731
								-28.41665	3.560972
								-27.95998	3.561758
								-27.47755	3.556853
								-27.01162	3.550656
								-26.47239	3.550077
								-25.93185	3.583598
								-25.4854	3.583003
								-24.9792	3.596544
								-24.49577	3.620953
								-23.99221	3.581169
								-23.42227	3.572644
								-22.85662	3.558796
								-22.3907	3.519208
								-21.91586	3.514172
								-21.3489	3.510897
								-20.86514	3.518292
								-20.28992	3.539055
								-19.73385	3.552189
								-19.28675	3.567393
								-18.74059	3.549932
								-18.33344	3.541535
								-17.90748	3.53469
								-17.35603	3.513507
								-16.95252	3.51613
								-16.42187	3.529232
								-15.88	3.527258
								-15.4755	3.543406
								-14.94453	3.558801
								-14.50832	3.546181
								-14.06617	3.535616
								-13.54841	3.542037
								-13.00026	3.513865
								-12.42108	3.497106
								-11.87129	3.504023
								-11.40668	3.479673
								-10.93251	3.491056
								-10.46856	3.498474
								-9.995377	3.498039
								-9.44294	3.511748
								-8.910645	3.492565
								-8.416986	3.488276
								-7.863558	3.444175
								-7.409853	3.391916
								-7.009642	3.387568
								-6.44895	3.345901
								-6.024303	3.360714
								-5.592392	3.423494
								-5.105336	3.423487
								-4.58658	3.420283
								-4.135187	3.428747
								-3.479065	3.3307
								-2.964932	3.284461
								-2.523445	3.347274
								-1.984216	3.344011
								-1.514991	3.348499
								-0.983688	3.395932
								-0.496962	3.334905
								0.043918	3.304596
								0.501915	3.322916
								1.100911	3.278782
								1.678114	3.25986
								2.169793	3.253051
								2.708361	3.249749
								3.190134	3.255388
								3.638225	3.283609
								4.104477	3.299109
								4.550257	3.316941
								4.960375	3.325456
								5.431581	3.323846
								5.976092	3.309329
								6.474376	3.281684
								6.988178	3.275563
								7.549201	3.258427
								7.989037	3.248521
								8.430525	3.265806
								8.909985	3.255797
								9.292035	3.244361
								9.766873	3.241258
								10.27407	3.225341
								10.7007	3.228697
								11.15176	3.220847
								11.61901	3.221291
								12.21437	3.201267
								12.75294	3.187518
								13.38099	3.207952
								13.96447	3.205572
								14.41421	3.200906
								15.02576	3.209568
								15.49993	3.16913
								15.91434	3.16054
								16.45159	3.163833
								16.86831	3.154054
								17.394	3.168249
								18.04319	3.180874
								18.36217	3.190911
								18.81456	3.183122
								19.22566	3.168567
								19.62852	3.14101
								20.25921	3.123092
								20.80835	3.108963
								21.31951	3.095087
								21.83067	3.091024
								22.29263	3.086121
								22.80148	3.0896
								23.31792	3.11548
								23.87829	3.114981
								24.35841	3.096474
								24.78966	3.082826
								25.35761	3.046455
								25.77632	3.049146
								26.37862	3.066558
								26.96441	3.056253
								27.42834	3.085907
								27.99663	3.070622
								28.39816	3.058023
								28.87531	3.063314
								29.32473	3.022638
								29.79461	3.019824
								30.38469	3.038013
								30.86977	3.027705
								31.41263	3.033591
								31.88119	3.007512
								32.34084	3.018512
								32.90847	3.016411
								33.40576	3.021849
								33.86211	3.048794
								34.35742	2.97193
								34.77777	2.984515
								35.33252	2.934728
								35.8767	2.949133
								36.36541	3.039871
								36.88482	3.018795
								37.37749	3.035937
								37.96988	3.017743
								38.47775	2.971843
								39.03976	2.978361
								39.52648	2.989782
								39.99736	2.984396
								40.45205	2.962467
								40.90047	2.979271
								41.41329	2.996509
								41.89043	2.995368
								42.40655	3.02747
								42.90384	3.026658
								43.35953	3.009329
								43.80333	2.997336
								44.42082	2.94733
								44.92801	2.920532
								45.40285	2.925539
								45.90213	2.914855
								46.27196	2.930753
								46.79072	2.915946
								47.25268	2.919197
								47.73709	2.928055
								48.33047	2.921713
								48.77592	2.940447
								49.30128	2.932542
								49.86626	2.919792
								50.31964	2.93184
								50.8975	2.928886
								51.45324	2.928779
								51.89935	2.941398
								52.40556	2.94327
								52.82889	2.919063
								53.31891	2.898638
								53.83106	2.875993
								54.46077	2.842556
								54.98316	2.862884
								55.45304	2.887641
								55.88462	2.915473
								56.27724	2.941754
								56.82538	2.93277
								57.39334	2.931518
								58.04121	2.916388
								58.50977	2.905358
								58.98758	2.916362
								59.38053	2.871852
								59.80187	2.866848
								60.33285	2.874236
								60.81792	2.864109
								61.25182	2.900917
								61.75439	2.933772
								62.21899	2.925506
								62.67006	2.902943
								63.25089	2.895129
								63.78847	2.855059
								64.35742	2.853924
								64.87221	2.892936
								65.36851	2.907101
								65.82188	2.915969
								66.2571	2.930764
								66.77817	2.907687
								67.32037	2.888351
								67.89691	2.891734
								68.46586	2.894754
								68.92881	2.897358
								69.47299	2.888902
								69.95972	2.896674
								70.38766	2.892159
								70.9718	2.907652
								71.40536	2.943915
								71.97728	2.890883
								72.52146	2.885884
								72.92101	2.925026
								73.46685	2.8849
								73.81621	2.925464
								74.30128	2.901273
								74.8699	2.817722
								75.2744	2.848058
								75.81462	2.842767
								76.28484	2.877748
								76.71543	2.927339
								77.25003	2.929765
								77.71166	2.94061
								78.21127	2.915768
								78.72672	2.90527
								79.20156	2.913751
								79.66121	2.924066
								80.12416	2.951549
								80.65877	2.985218
								81.14252	2.978418
								81.67844	2.992463
								82.20975	2.982429
								82.75624	2.950618
								83.28326	2.94469
								83.83272	2.947531
								84.28939	2.965057
								84.68333	2.973515
								85.17006	2.980364
								85.6307	2.980669
								86.08275	2.983718
								86.62231	2.995409
								87.19588	2.995736
								87.72025	2.976273
								88.28656	2.960698
								88.83305	2.9627
								89.29666	2.977324
								89.79065	2.989672
								90.40318	3.030269
								90.85689	3.029635
								91.36012	3.017885
								91.82802	3.034896
								92.25334	3.004118
								92.85068	3.001782
								93.36909	3.031441
								93.88092	3.019337
								94.29038	3.037133
								94.76423	3.042453
								95.23312	3.026797
								95.7423	3.031808
								96.35583	3.0184
								96.82307	3.011443
								97.37914	2.990727
								97.83879	2.973422
								98.28061	2.978009
